Data from 42g_HRC06701__28__515.txt Node

Date: Thu Apr 18 02:42:31 CDT 2024
User: Estudiantes 2
Spectrometer: HR+C0670
Trigger mode: 4
Integration Time (sec): 1.000000E0
Scans to average: 1
Electric dark correction enabled: true
Nonlinearity correction enabled: false
Boxcar width: 0
XAxis mode: Wavelengths
Number of Pixels in Spectrum: 2048
>>>>>Begin Spectral Data<<<<<
407.81	-115.88
407.921	-115.88
408.032	-115.88
408.143	-122.88
408.254	-162.88
408.365	58.12
408.476	325.12
408.587	-57.88
408.699	-17.88
408.81	7.12
408.921	-65.88
409.032	-57.88
409.143	70.12
409.254	12.12
409.365	68.12
409.476	-18.88
409.587	10.12
409.698	69.12
409.809	132.12
409.92	-44.88
410.031	-40.88
410.142	66.12
410.253	15.12
410.364	38.12
410.475	-75.88
410.585	30.12
410.696	12.12
410.807	-35.88
410.918	45.12
411.029	67.12
411.14	41.12
411.251	2.12
411.362	107.12
411.472	70.12
411.583	66.12
411.694	126.12
411.805	-9.88
411.916	-13.88
412.026	106.12
412.137	31.12
412.248	12.12
412.359	50.12
412.47	-10.88
412.58	-18.88
412.691	79.12
412.802	95.12
412.912	23.12
413.023	31.12
413.134	45.12
413.245	111.12
413.355	5.12
413.466	44.12
413.577	10.12
413.687	119.12
413.798	6.12
413.909	94.12
414.019	37.12
414.13	66.12
414.24	15.12
414.351	44.12
414.462	187.12
414.572	166.12
414.683	74.12
414.793	23.12
414.904	386.12
415.014	0.12
415.125	-21.88
415.235	64.12
415.346	150.12
415.456	163.12
415.567	48.12
415.677	95.12
415.788	82.12
415.898	-12.88
416.009	55.12
416.119	47.12
416.23	45.12
416.34	18.12
416.45	15.12
416.561	842.12
416.671	216.12
416.782	-35.88
416.892	6.12
417.002	29.12
417.113	110.12
417.223	35.12
417.333	-13.88
417.444	27.12
417.554	58.12
417.664	75.12
417.775	-9.88
417.885	18.12
417.995	34.12
418.106	169.12
418.216	98.12
418.326	41.12
418.436	-17.88
418.547	67.12
418.657	-46.88
418.767	102.12
418.877	61.12
418.987	-19.88
419.098	-14.88
419.208	39.12
419.318	126.12
419.428	63.12
419.538	-2.88
419.648	20.12
419.759	46.12
419.869	99.12
419.979	45.12
420.089	2.12
420.199	-15.88
420.309	122.12
420.419	86.12
420.529	19.12
420.639	614.12
420.749	124.12
420.859	107.12
420.969	87.12
421.079	323.12
421.189	134.12
421.299	91.12
421.409	42.12
421.519	102.12
421.629	118.12
421.739	55.12
421.849	-41.88
421.959	-29.88
422.069	114.12
422.179	19.12
422.289	0.12
422.399	32.12
422.509	150.12
422.619	3680.12
422.729	415.12
422.838	13.12
422.948	7.12
423.058	-40.88
423.168	23.12
423.278	30.12
423.388	25.12
423.498	102.12
423.607	54.12
423.717	308.12
423.827	359.12
423.937	118.12
424.046	106.12
424.156	129.12
424.266	63.12
424.376	241.12
424.485	174.12
424.595	38.12
424.705	-38.88
424.815	15.12
424.924	472.12
425.034	135.12
425.144	-44.88
425.253	53.12
425.363	130.12
425.473	69.12
425.582	-14.88
425.692	60.12
425.801	-28.88
425.911	157.12
426.021	79.12
426.13	138.12
426.24	244.12
426.349	179.12
426.459	48.12
426.568	-17.88
426.678	126.12
426.787	80.12
426.897	-10.88
427.006	10.12
427.116	157.12
427.225	10.12
427.335	86.12
427.444	61.12
427.554	92.12
427.663	37.12
427.773	2.12
427.882	84.12
427.992	-23.88
428.101	19.12
428.21	36.12
428.32	44.12
428.429	-27.88
428.539	322.12
428.648	-15.88
428.757	102.12
428.867	94.12
428.976	154.12
429.085	69.12
429.195	22.12
429.304	51.12
429.413	33.12
429.523	58.12
429.632	119.12
429.741	49.12
429.85	1.12
429.96	82.12
430.069	4.12
430.178	-1.88
430.287	350.12
430.397	54.12
430.506	9.12
430.615	30.12
430.724	64.12
430.833	26.12
430.943	25.12
431.052	71.12
431.161	-25.88
431.27	33.12
431.379	47.12
431.488	141.12
431.597	90.12
431.706	120.12
431.816	43.12
431.925	21.12
432.034	30.12
432.143	103.12
432.252	54.12
432.361	143.12
432.47	67.12
432.579	20.12
432.688	7.12
432.797	126.12
432.906	-17.88
433.015	99.12
433.124	484.12
433.233	118.12
433.342	119.12
433.451	51.12
433.56	51.12
433.669	26.12
433.778	29.12
433.886	93.12
433.995	10.12
434.104	164.12
434.213	83.12
434.322	10.12
434.431	144.12
434.54	62.12
434.649	171.12
434.757	43.12
434.866	13.12
434.975	109.12
435.084	122.12
435.193	114.12
435.301	350.12
435.41	464.12
435.519	588.12
435.628	118.12
435.737	33.12
435.845	20.12
435.954	44.12
436.063	95.12
436.171	46.12
436.28	86.12
436.389	193.12
436.498	69.12
436.606	55.12
436.715	269.12
436.823	59.12
436.932	14.12
437.041	102.12
437.149	94.12
437.258	20.12
437.367	53.12
437.475	33.12
437.584	260.12
437.692	63.12
437.801	1645.12
437.91	237.12
438.018	7.12
438.127	46.12
438.235	119.12
438.344	-0.88
438.452	109.12
438.561	-12.88
438.669	-2.88
438.778	22.12
438.886	45.12
438.995	-29.88
439.103	20.12
439.212	68.12
439.32	-13.88
439.428	-18.88
439.537	90.12
439.645	77.12
439.754	38.12
439.862	47.12
439.97	62.12
440.079	6.12
440.187	-27.88
440.295	131.12
440.404	-2.88
440.512	26.12
440.62	96.12
440.729	83.12
440.837	111.12
440.945	749.12
441.054	128.12
441.162	58.12
441.27	148.12
441.378	20.12
441.487	-12.88
441.595	418.12
441.703	162.12
441.811	86.12
441.92	38.12
442.028	20.12
442.136	47.12
442.244	90.12
442.352	95.12
442.461	-16.88
442.569	-26.88
442.677	39.12
442.785	34.12
442.893	10.12
443.001	-13.88
443.109	-16.88
443.217	-30.88
443.325	-50.88
443.434	587.12
443.542	251.12
443.65	69.12
443.758	193.12
443.866	21.12
443.974	270.12
444.082	110.12
444.19	11.12
444.298	13.12
444.406	96.12
444.514	20.12
444.622	82.12
444.73	87.12
444.838	84.12
444.946	74.12
445.054	19.12
445.161	42.12
445.269	7.12
445.377	90.12
445.485	75.12
445.593	63.12
445.701	261.12
445.809	188.12
445.917	113.12
446.025	4.12
446.132	124.12
446.24	174.12
446.348	83.12
446.456	10.12
446.564	47.12
446.671	51.12
446.779	14.12
446.887	45.12
446.995	72.12
447.102	55.12
447.21	111.12
447.318	111.12
447.426	-33.88
447.533	241.12
447.641	1346.12
447.749	198.12
447.856	30.12
447.964	89.12
448.072	134.12
448.179	9.12
448.287	122.12
448.395	120.12
448.502	23.12
448.61	79.12
448.718	28.12
448.825	74.12
448.933	51.12
449.04	80.12
449.148	15.12
449.256	34.12
449.363	133.12
449.471	46.12
449.578	89.12
449.686	36.12
449.793	120.12
449.901	22.12
450.008	51.12
450.116	100.12
450.223	27.12
450.331	65.12
450.438	78.12
450.546	67.12
450.653	93.12
450.76	85.12
450.868	64.12
450.975	225.12
451.083	74.12
451.19	99.12
451.297	74.12
451.405	115.12
451.512	54.12
451.619	194.12
451.727	166.12
451.834	74.12
451.941	47.12
452.049	58.12
452.156	102.12
452.263	75.12
452.371	22.12
452.478	126.12
452.585	188.12
452.692	30.12
452.8	82.12
452.907	221.12
453.014	101.12
453.121	16.12
453.229	132.12
453.336	107.12
453.443	137.12
453.55	59.12
453.657	83.12
453.765	103.12
453.872	107.12
453.979	129.12
454.086	34.12
454.193	103.12
454.3	106.12
454.407	196.12
454.514	164.12
454.621	100.12
454.729	21.12
454.836	46.12
454.943	101.12
455.05	106.12
455.157	144.12
455.264	78.12
455.371	96.12
455.478	72.12
455.585	1364.12
455.692	287.12
455.799	213.12
455.906	40.12
456.013	77.12
456.12	-10.88
456.227	59.12
456.334	124.12
456.44	179.12
456.547	65.12
456.654	44.12
456.761	65.12
456.868	152.12
456.975	108.12
457.082	83.12
457.189	4.12
457.296	62.12
457.402	68.12
457.509	14.12
457.616	100.12
457.723	271.12
457.83	52.12
457.936	20.12
458.043	337.12
458.15	110.12
458.257	146.12
458.363	79.12
458.47	61.12
458.577	110.12
458.684	31.12
458.79	132.12
458.897	84.12
459.004	172.12
459.11	95.12
459.217	78.12
459.324	154.12
459.43	194.12
459.537	363.12
459.644	101.12
459.75	51.12
459.857	457.12
459.964	133.12
460.07	129.12
460.177	163.12
460.283	159.12
460.39	222.12
460.496	147.12
460.603	174.12
460.71	149.12
460.816	106.12
460.923	100.12
461.029	127.12
461.136	133.12
461.242	195.12
461.349	134.12
461.455	80.12
461.562	464.12
461.668	173.12
461.774	126.12
461.881	269.12
461.987	143.12
462.094	110.12
462.2	180.12
462.307	234.12
462.413	122.12
462.519	88.12
462.626	244.12
462.732	147.12
462.838	133.12
462.945	226.12
463.051	131.12
463.157	131.12
463.264	205.12
463.37	206.12
463.476	148.12
463.583	146.12
463.689	119.12
463.795	133.12
463.901	170.12
464.008	302.12
464.114	90.12
464.22	91.12
464.326	188.12
464.433	80.12
464.539	138.12
464.645	157.12
464.751	310.12
464.857	176.12
464.963	99.12
465.07	191.12
465.176	168.12
465.282	125.12
465.388	271.12
465.494	68.12
465.6	110.12
465.706	99.12
465.812	45.12
465.918	188.12
466.024	98.12
466.131	150.12
466.237	87.12
466.343	60.12
466.449	83.12
466.555	40.12
466.661	38.12
466.767	99.12
466.873	96.12
466.979	243.12
467.085	134.12
467.191	99.12
467.296	74.12
467.402	48.12
467.508	88.12
467.614	205.12
467.72	76.12
467.826	80.12
467.932	95.12
468.038	68.12
468.144	102.12
468.25	70.12
468.355	-10.88
468.461	124.12
468.567	7.12
468.673	62.12
468.779	97.12
468.885	52.12
468.99	0.12
469.096	38.12
469.202	183.12
469.308	107.12
469.413	132.12
469.519	108.12
469.625	44.12
469.731	78.12
469.836	100.12
469.942	235.12
470.048	109.12
470.153	103.12
470.259	103.12
470.365	160.12
470.47	125.12
470.576	155.12
470.682	86.12
470.787	67.12
470.893	61.12
470.999	70.12
471.104	141.12
471.21	63.12
471.315	-28.88
471.421	10.12
471.527	239.12
471.632	162.12
471.738	100.12
471.843	23.12
471.949	154.12
472.054	134.12
472.16	41.12
472.265	150.12
472.371	23.12
472.476	84.12
472.582	172.12
472.687	104.12
472.793	19.12
472.898	80.12
473.003	56.12
473.109	47.12
473.214	19.12
473.32	68.12
473.425	124.12
473.53	40.12
473.636	80.12
473.741	7.12
473.847	23.12
473.952	109.12
474.057	110.12
474.163	125.12
474.268	5.12
474.373	129.12
474.478	-3.88
474.584	45.12
474.689	150.12
474.794	75.12
474.9	295.12
475.005	124.12
475.11	214.12
475.215	12.12
475.321	90.12
475.426	206.12
475.531	196.12
475.636	58.12
475.741	16.12
475.846	167.12
475.952	272.12
476.057	184.12
476.162	164.12
476.267	235.12
476.372	354.12
476.477	76.12
476.582	170.12
476.687	54.12
476.793	69.12
476.898	44.12
477.003	98.12
477.108	73.12
477.213	-23.88
477.318	11.12
477.423	128.12
477.528	155.12
477.633	180.12
477.738	138.12
477.843	18.12
477.948	69.12
478.053	95.12
478.158	41.12
478.263	100.12
478.368	70.12
478.473	179.12
478.578	126.12
478.682	10.12
478.787	159.12
478.892	77.12
478.997	132.12
479.102	122.12
479.207	31.12
479.312	181.12
479.417	141.12
479.521	72.12
479.626	182.12
479.731	111.12
479.836	74.12
479.941	196.12
480.045	139.12
480.15	170.12
480.255	99.12
480.36	34.12
480.465	173.12
480.569	258.12
480.674	88.12
480.779	65.12
480.883	64.12
480.988	128.12
481.093	65.12
481.197	114.12
481.302	98.12
481.407	133.12
481.511	2237.12
481.616	288.12
481.721	127.12
481.825	359.12
481.93	87.12
482.035	45.12
482.139	151.12
482.244	118.12
482.348	79.12
482.453	114.12
482.557	171.12
482.662	131.12
482.767	33.12
482.871	91.12
482.976	63.12
483.08	111.12
483.185	268.12
483.289	49.12
483.394	78.12
483.498	133.12
483.603	76.12
483.707	61.12
483.811	166.12
483.916	226.12
484.02	63.12
484.125	164.12
484.229	160.12
484.333	169.12
484.438	60.12
484.542	134.12
484.647	40.12
484.751	76.12
484.855	93.12
484.96	92.12
485.064	68.12
485.168	90.12
485.273	108.12
485.377	57.12
485.481	264.12
485.585	116.12
485.69	25.12
485.794	88.12
485.898	116.12
486.002	48.12
486.107	81.12
486.211	119.12
486.315	156.12
486.419	195.12
486.524	154.12
486.628	118.12
486.732	65.12
486.836	95.12
486.94	214.12
487.044	79.12
487.148	62.12
487.253	94.12
487.357	102.12
487.461	295.12
487.565	192.12
487.669	98.12
487.773	67.12
487.877	174.12
487.981	206.12
488.085	153.12
488.189	117.12
488.293	302.12
488.397	555.12
488.501	171.12
488.605	149.12
488.709	117.12
488.813	73.12
488.917	92.12
489.021	108.12
489.125	405.12
489.229	155.12
489.333	268.12
489.437	173.12
489.541	157.12
489.645	97.12
489.749	102.12
489.853	165.12
489.956	142.12
490.06	141.12
490.164	119.12
490.268	127.12
490.372	154.12
490.476	93.12
490.579	115.12
490.683	779.12
490.787	237.12
490.891	130.12
490.995	187.12
491.098	169.12
491.202	112.12
491.306	190.12
491.41	145.12
491.513	83.12
491.617	110.12
491.721	286.12
491.824	368.12
491.928	164.12
492.032	408.12
492.136	151.12
492.239	90.12
492.343	168.12
492.446	502.12
492.55	237.12
492.654	106.12
492.757	41.12
492.861	144.12
492.965	130.12
493.068	157.12
493.172	107.12
493.275	82.12
493.379	113.12
493.482	237.12
493.586	264.12
493.689	385.12
493.793	83.12
493.896	204.12
494	206.12
494.103	195.12
494.207	418.12
494.31	517.12
494.414	222.12
494.517	146.12
494.621	69.12
494.724	166.12
494.828	96.12
494.931	106.12
495.034	151.12
495.138	270.12
495.241	71.12
495.345	942.12
495.448	295.12
495.551	118.12
495.655	114.12
495.758	111.12
495.861	76.12
495.965	79.12
496.068	194.12
496.171	182.12
496.274	126.12
496.378	170.12
496.481	157.12
496.584	132.12
496.687	170.12
496.791	189.12
496.894	157.12
496.997	100.12
497.1	215.12
497.204	176.12
497.307	83.12
497.41	291.12
497.513	333.12
497.616	122.12
497.719	148.12
497.823	116.12
497.926	132.12
498.029	173.12
498.132	180.12
498.235	111.12
498.338	161.12
498.441	330.12
498.544	110.12
498.647	179.12
498.75	306.12
498.853	306.12
498.956	220.12
499.059	434.12
499.163	203.12
499.266	213.12
499.369	247.12
499.471	210.12
499.574	325.12
499.677	283.12
499.78	300.12
499.883	283.12
499.986	283.12
500.089	315.12
500.192	295.12
500.295	334.12
500.398	321.12
500.501	332.12
500.604	236.12
500.707	205.12
500.809	233.12
500.912	344.12
501.015	360.12
501.118	271.12
501.221	363.12
501.324	274.12
501.426	280.12
501.529	210.12
501.632	213.12
501.735	181.12
501.837	142.12
501.94	151.12
502.043	141.12
502.146	186.12
502.248	166.12
502.351	112.12
502.454	188.12
502.557	110.12
502.659	165.12
502.762	163.12
502.865	75.12
502.967	92.12
503.07	145.12
503.173	139.12
503.275	109.12
503.378	138.12
503.48	97.12
503.583	165.12
503.686	175.12
503.788	419.12
503.891	150.12
503.993	315.12
504.096	154.12
504.198	134.12
504.301	92.12
504.403	160.12
504.506	106.12
504.608	82.12
504.711	123.12
504.813	196.12
504.916	143.12
505.018	136.12
505.121	98.12
505.223	144.12
505.326	107.12
505.428	238.12
505.531	145.12
505.633	162.12
505.735	103.12
505.838	76.12
505.94	85.12
506.042	60.12
506.145	78.12
506.247	151.12
506.35	49.12
506.452	226.12
506.554	157.12
506.656	111.12
506.759	102.12
506.861	114.12
506.963	96.12
507.066	142.12
507.168	203.12
507.27	74.12
507.372	37.12
507.475	93.12
507.577	128.12
507.679	70.12
507.781	85.12
507.883	77.12
507.986	28.12
508.088	174.12
508.19	117.12
508.292	98.12
508.394	72.12
508.496	47.12
508.598	32.12
508.701	76.12
508.803	114.12
508.905	47.12
509.007	96.12
509.109	213.12
509.211	148.12
509.313	81.12
509.415	76.12
509.517	89.12
509.619	24.12
509.721	163.12
509.823	67.12
509.925	209.12
510.027	113.12
510.129	150.12
510.231	115.12
510.333	59.12
510.435	117.12
510.537	51.12
510.639	151.12
510.741	146.12
510.843	157.12
510.945	82.12
511.047	173.12
511.148	127.12
511.25	66.12
511.352	119.12
511.454	26.12
511.556	146.12
511.658	104.12
511.76	222.12
511.861	218.12
511.963	63.12
512.065	67.12
512.167	55.12
512.268	259.12
512.37	157.12
512.472	102.12
512.574	140.12
512.676	151.12
512.777	116.12
512.879	44.12
512.981	46.12
513.082	101.12
513.184	102.12
513.286	537.12
513.387	214.12
513.489	233.12
513.591	137.12
513.692	180.12
513.794	120.12
513.896	-10.88
513.997	70.12
514.099	68.12
514.2	65.12
514.302	86.12
514.404	111.12
514.505	23.12
514.607	118.12
514.708	119.12
514.81	142.12
514.911	141.12
515.013	192.12
515.114	154.12
515.216	50.12
515.317	77.12
515.419	110.12
515.52	109.12
515.622	91.12
515.723	159.12
515.825	225.12
515.926	140.12
516.027	105.12
516.129	61.12
516.23	74.12
516.332	124.12
516.433	104.12
516.534	192.12
516.636	107.12
516.737	70.12
516.838	1111.12
516.94	274.12
517.041	166.12
517.142	235.12
517.244	254.12
517.345	192.12
517.446	115.12
517.547	181.12
517.649	95.12
517.75	154.12
517.851	91.12
517.952	388.12
518.054	197.12
518.155	279.12
518.256	124.12
518.357	332.12
518.458	46.12
518.56	45.12
518.661	152.12
518.762	145.12
518.863	217.12
518.964	237.12
519.065	101.12
519.166	107.12
519.268	55.12
519.369	420.12
519.47	113.12
519.571	131.12
519.672	110.12
519.773	66.12
519.874	123.12
519.975	198.12
520.076	155.12
520.177	173.12
520.278	114.12
520.379	150.12
520.48	46.12
520.581	76.12
520.682	135.12
520.783	68.12
520.884	166.12
520.985	187.12
521.086	92.12
521.187	134.12
521.288	123.12
521.389	129.12
521.489	71.12
521.59	64.12
521.691	131.12
521.792	54.12
521.893	211.12
521.994	302.12
522.095	127.12
522.195	221.12
522.296	279.12
522.397	155.12
522.498	142.12
522.599	53.12
522.699	112.12
522.8	149.12
522.901	218.12
523.002	180.12
523.102	326.12
523.203	149.12
523.304	359.12
523.405	85.12
523.505	129.12
523.606	209.12
523.707	173.12
523.807	140.12
523.908	156.12
524.009	287.12
524.109	166.12
524.21	112.12
524.31	203.12
524.411	234.12
524.512	233.12
524.612	213.12
524.713	298.12
524.813	146.12
524.914	416.12
525.014	6211.12
525.115	708.12
525.216	97.12
525.316	155.12
525.417	160.12
525.517	97.12
525.618	125.12
525.718	79.12
525.819	84.12
525.919	197.12
526.019	98.12
526.12	195.12
526.22	82.12
526.321	113.12
526.421	58.12
526.522	108.12
526.622	66.12
526.722	95.12
526.823	140.12
526.923	171.12
527.023	246.12
527.124	118.12
527.224	244.12
527.324	41.12
527.425	132.12
527.525	81.12
527.625	77.12
527.726	88.12
527.826	194.12
527.926	137.12
528.026	158.12
528.127	67.12
528.227	134.12
528.327	220.12
528.427	164.12
528.528	220.12
528.628	171.12
528.728	145.12
528.828	245.12
528.928	173.12
529.029	110.12
529.129	169.12
529.229	194.12
529.329	138.12
529.429	190.12
529.529	283.12
529.629	222.12
529.729	166.12
529.829	399.12
529.93	80.12
530.03	221.12
530.13	201.12
530.23	138.12
530.33	232.12
530.43	149.12
530.53	210.12
530.63	174.12
530.73	79.12
530.83	109.12
530.93	76.12
531.03	67.12
531.13	212.12
531.23	93.12
531.33	149.12
531.429	227.12
531.529	315.12
531.629	141.12
531.729	42.12
531.829	96.12
531.929	74.12
532.029	178.12
532.129	147.12
532.229	154.12
532.328	110.12
532.428	139.12
532.528	62.12
532.628	67.12
532.728	131.12
532.827	67.12
532.927	150.12
533.027	152.12
533.127	258.12
533.227	188.12
533.326	141.12
533.426	123.12
533.526	210.12
533.625	251.12
533.725	447.12
533.825	218.12
533.924	62.12
534.024	70.12
534.124	43.12
534.223	146.12
534.323	550.12
534.423	223.12
534.522	141.12
534.622	79.12
534.722	152.12
534.821	156.12
534.921	88.12
535.02	91.12
535.12	174.12
535.219	253.12
535.319	245.12
535.419	181.12
535.518	110.12
535.618	139.12
535.717	234.12
535.817	110.12
535.916	8.12
536.016	187.12
536.115	91.12
536.215	110.12
536.314	69.12
536.413	11.12
536.513	88.12
536.612	103.12
536.712	25.12
536.811	82.12
536.91	31.12
537.01	78.12
537.109	109.12
537.209	119.12
537.308	100.12
537.407	54.12
537.507	84.12
537.606	124.12
537.705	172.12
537.805	122.12
537.904	58.12
538.003	137.12
538.102	213.12
538.202	124.12
538.301	219.12
538.4	183.12
538.499	160.12
538.599	165.12
538.698	355.12
538.797	83.12
538.896	202.12
538.995	141.12
539.095	103.12
539.194	358.12
539.293	146.12
539.392	109.12
539.491	87.12
539.59	162.12
539.689	246.12
539.789	200.12
539.888	91.12
539.987	-1.88
540.086	95.12
540.185	115.12
540.284	161.12
540.383	120.12
540.482	72.12
540.581	156.12
540.68	102.12
540.779	127.12
540.878	173.12
540.977	194.12
541.076	122.12
541.175	220.12
541.274	358.12
541.373	211.12
541.472	225.12
541.571	91.12
541.67	1419.12
541.769	343.12
541.868	213.12
541.966	202.12
542.065	141.12
542.164	205.12
542.263	104.12
542.362	151.12
542.461	224.12
542.56	177.12
542.658	216.12
542.757	114.12
542.856	74.12
542.955	58.12
543.054	95.12
543.152	305.12
543.251	134.12
543.35	271.12
543.449	252.12
543.547	130.12
543.646	74.12
543.745	217.12
543.843	193.12
543.942	142.12
544.041	125.12
544.14	190.12
544.238	124.12
544.337	362.12
544.436	241.12
544.534	297.12
544.633	201.12
544.731	195.12
544.83	196.12
544.929	156.12
545.027	180.12
545.126	94.12
545.224	214.12
545.323	124.12
545.421	149.12
545.52	145.12
545.619	155.12
545.717	183.12
545.816	224.12
545.914	242.12
546.013	462.12
546.111	330.12
546.209	154.12
546.308	142.12
546.406	136.12
546.505	346.12
546.603	223.12
546.702	147.12
546.8	113.12
546.899	115.12
546.997	260.12
547.095	188.12
547.194	218.12
547.292	227.12
547.39	253.12
547.489	157.12
547.587	480.12
547.685	178.12
547.784	359.12
547.882	251.12
547.98	109.12
548.079	199.12
548.177	147.12
548.275	162.12
548.373	308.12
548.472	110.12
548.57	250.12
548.668	246.12
548.766	127.12
548.864	301.12
548.963	171.12
549.061	302.12
549.159	178.12
549.257	230.12
549.355	126.12
549.454	91.12
