Data from 42g_HRC06701__47__534.txt Node

Date: Thu Apr 18 02:42:50 CDT 2024
User: Estudiantes 2
Spectrometer: HR+C0670
Trigger mode: 4
Integration Time (sec): 1.000000E0
Scans to average: 1
Electric dark correction enabled: true
Nonlinearity correction enabled: false
Boxcar width: 0
XAxis mode: Wavelengths
Number of Pixels in Spectrum: 2048
>>>>>Begin Spectral Data<<<<<
407.81	-146.56
407.921	-146.56
408.032	-146.56
408.143	-154.56
408.254	-125.56
408.365	35.44
408.476	271.44
408.587	22.44
408.699	-47.56
408.81	-29.56
408.921	-31.56
409.032	-53.56
409.143	28.44
409.254	44.44
409.365	126.44
409.476	-47.56
409.587	11.44
409.698	96.44
409.809	60.44
409.92	-73.56
410.031	13.44
410.142	68.44
410.253	31.44
410.364	72.44
410.475	3.44
410.585	172.44
410.696	252.44
410.807	247.44
410.918	240.44
411.029	295.44
411.14	322.44
411.251	214.44
411.362	314.44
411.472	341.44
411.583	275.44
411.694	306.44
411.805	259.44
411.916	249.44
412.026	336.44
412.137	282.44
412.248	330.44
412.359	293.44
412.47	245.44
412.58	280.44
412.691	272.44
412.802	262.44
412.912	281.44
413.023	258.44
413.134	208.44
413.245	367.44
413.355	252.44
413.466	219.44
413.577	234.44
413.687	346.44
413.798	203.44
413.909	298.44
414.019	287.44
414.13	251.44
414.24	227.44
414.351	364.44
414.462	458.44
414.572	304.44
414.683	337.44
414.793	260.44
414.904	621.44
415.014	275.44
415.125	296.44
415.235	290.44
415.346	422.44
415.456	451.44
415.567	306.44
415.677	302.44
415.788	338.44
415.898	265.44
416.009	227.44
416.119	314.44
416.23	259.44
416.34	217.44
416.45	290.44
416.561	1139.44
416.671	403.44
416.782	186.44
416.892	276.44
417.002	332.44
417.113	332.44
417.223	324.44
417.333	237.44
417.444	254.44
417.554	316.44
417.664	369.44
417.775	208.44
417.885	290.44
417.995	334.44
418.106	422.44
418.216	367.44
418.326	361.44
418.436	260.44
418.547	282.44
418.657	311.44
418.767	390.44
418.877	343.44
418.987	303.44
419.098	359.44
419.208	318.44
419.318	387.44
419.428	393.44
419.538	297.44
419.648	362.44
419.759	440.44
419.869	378.44
419.979	291.44
420.089	369.44
420.199	272.44
420.309	332.44
420.419	369.44
420.529	331.44
420.639	858.44
420.749	401.44
420.859	418.44
420.969	362.44
421.079	598.44
421.189	474.44
421.299	372.44
421.409	282.44
421.519	453.44
421.629	468.44
421.739	306.44
421.849	300.44
421.959	324.44
422.069	371.44
422.179	352.44
422.289	361.44
422.399	315.44
422.509	465.44
422.619	4087.44
422.729	737.44
422.838	309.44
422.948	425.44
423.058	354.44
423.168	342.44
423.278	397.44
423.388	410.44
423.498	449.44
423.607	433.44
423.717	739.44
423.827	712.44
423.937	433.44
424.046	498.44
424.156	482.44
424.266	398.44
424.376	678.44
424.485	596.44
424.595	388.44
424.705	382.44
424.815	440.44
424.924	833.44
425.034	499.44
425.144	398.44
425.253	394.44
425.363	485.44
425.473	527.44
425.582	324.44
425.692	339.44
425.801	365.44
425.911	584.44
426.021	448.44
426.13	527.44
426.24	683.44
426.349	551.44
426.459	406.44
426.568	456.44
426.678	539.44
426.787	439.44
426.897	424.44
427.006	416.44
427.116	473.44
427.225	442.44
427.335	515.44
427.444	405.44
427.554	510.44
427.663	469.44
427.773	463.44
427.882	520.44
427.992	462.44
428.101	433.44
428.21	479.44
428.32	539.44
428.429	366.44
428.539	709.44
428.648	468.44
428.757	575.44
428.867	489.44
428.976	639.44
429.085	571.44
429.195	417.44
429.304	480.44
429.413	555.44
429.523	503.44
429.632	543.44
429.741	570.44
429.85	476.44
429.96	532.44
430.069	483.44
430.178	461.44
430.287	772.44
430.397	515.44
430.506	537.44
430.615	450.44
430.724	528.44
430.833	566.44
430.943	559.44
431.052	517.44
431.161	523.44
431.27	556.44
431.379	491.44
431.488	693.44
431.597	642.44
431.706	600.44
431.816	514.44
431.925	597.44
432.034	504.44
432.143	601.44
432.252	631.44
432.361	643.44
432.47	570.44
432.579	607.44
432.688	518.44
432.797	551.44
432.906	523.44
433.015	656.44
433.124	931.44
433.233	604.44
433.342	699.44
433.451	557.44
433.56	546.44
433.669	631.44
433.778	568.44
433.886	633.44
433.995	623.44
434.104	783.44
434.213	638.44
434.322	579.44
434.431	777.44
434.54	696.44
434.649	798.44
434.757	724.44
434.866	614.44
434.975	749.44
435.084	745.44
435.193	706.44
435.301	943.44
435.41	1023.44
435.519	1111.44
435.628	641.44
435.737	577.44
435.845	590.44
435.954	518.44
436.063	550.44
436.171	640.44
436.28	602.44
436.389	704.44
436.498	643.44
436.606	556.44
436.715	728.44
436.823	566.44
436.932	529.44
437.041	507.44
437.149	577.44
437.258	566.44
437.367	518.44
437.475	541.44
437.584	833.44
437.692	526.44
437.801	2132.44
437.91	778.44
438.018	467.44
438.127	493.44
438.235	570.44
438.344	520.44
438.452	473.44
438.561	481.44
438.669	531.44
438.778	487.44
438.886	530.44
438.995	522.44
439.103	482.44
439.212	494.44
439.32	564.44
439.428	472.44
439.537	480.44
439.645	615.44
439.754	574.44
439.862	492.44
439.97	525.44
440.079	557.44
440.187	424.44
440.295	598.44
440.404	567.44
440.512	509.44
440.62	562.44
440.729	638.44
440.837	593.44
440.945	1236.44
441.054	715.44
441.162	616.44
441.27	640.44
441.378	603.44
441.487	649.44
441.595	934.44
441.703	740.44
441.811	678.44
441.92	569.44
442.028	528.44
442.136	647.44
442.244	593.44
442.352	612.44
442.461	542.44
442.569	519.44
442.677	509.44
442.785	627.44
442.893	601.44
443.001	531.44
443.109	524.44
443.217	548.44
443.325	503.44
443.434	1126.44
443.542	857.44
443.65	567.44
443.758	720.44
443.866	562.44
443.974	914.44
444.082	626.44
444.19	597.44
444.298	729.44
444.406	776.44
444.514	708.44
444.622	775.44
444.73	766.44
444.838	689.44
444.946	755.44
445.054	617.44
445.161	608.44
445.269	575.44
445.377	654.44
445.485	608.44
445.593	627.44
445.701	833.44
445.809	675.44
445.917	668.44
446.025	607.44
446.132	692.44
446.24	665.44
446.348	642.44
446.456	498.44
446.564	521.44
446.671	585.44
446.779	557.44
446.887	518.44
446.995	539.44
447.102	645.44
447.21	587.44
447.318	606.44
447.426	567.44
447.533	788.44
447.641	1819.44
447.749	712.44
447.856	547.44
447.964	578.44
448.072	703.44
448.179	569.44
448.287	610.44
448.395	636.44
448.502	526.44
448.61	595.44
448.718	553.44
448.825	689.44
448.933	528.44
449.04	530.44
449.148	609.44
449.256	611.44
449.363	579.44
449.471	617.44
449.578	666.44
449.686	556.44
449.793	697.44
449.901	616.44
450.008	597.44
450.116	643.44
450.223	607.44
450.331	645.44
450.438	623.44
450.546	669.44
450.653	669.44
450.76	645.44
450.868	692.44
450.975	894.44
451.083	631.44
451.19	708.44
451.297	758.44
451.405	696.44
451.512	669.44
451.619	831.44
451.727	766.44
451.834	660.44
451.941	708.44
452.049	656.44
452.156	679.44
452.263	740.44
452.371	736.44
452.478	692.44
452.585	808.44
452.692	723.44
452.8	712.44
452.907	863.44
453.014	803.44
453.121	676.44
453.229	710.44
453.336	820.44
453.443	851.44
453.55	657.44
453.657	751.44
453.765	849.44
453.872	775.44
453.979	834.44
454.086	786.44
454.193	731.44
454.3	679.44
454.407	928.44
454.514	841.44
454.621	740.44
454.729	751.44
454.836	774.44
454.943	757.44
455.05	834.44
455.157	923.44
455.264	739.44
455.371	757.44
455.478	816.44
455.585	2076.44
455.692	975.44
455.799	982.44
455.906	784.44
456.013	753.44
456.12	754.44
456.227	774.44
456.334	863.44
456.44	905.44
456.547	826.44
456.654	743.44
456.761	823.44
456.868	960.44
456.975	893.44
457.082	821.44
457.189	775.44
457.296	783.44
457.402	789.44
457.509	767.44
457.616	864.44
457.723	991.44
457.83	896.44
457.936	881.44
458.043	1166.44
458.15	912.44
458.257	964.44
458.363	930.44
458.47	933.44
458.577	1010.44
458.684	917.44
458.79	990.44
458.897	1074.44
459.004	1112.44
459.11	990.44
459.217	1038.44
459.324	1211.44
459.43	1196.44
459.537	1371.44
459.644	1169.44
459.75	1114.44
459.857	1568.44
459.964	1239.44
460.07	1226.44
460.177	1247.44
460.283	1290.44
460.39	1341.44
460.496	1219.44
460.603	1310.44
460.71	1278.44
460.816	1179.44
460.923	1147.44
461.029	1256.44
461.136	1214.44
461.242	1222.44
461.349	1244.44
461.455	1210.44
461.562	1500.44
461.668	1332.44
461.774	1275.44
461.881	1326.44
461.987	1339.44
462.094	1347.44
462.2	1387.44
462.307	1394.44
462.413	1361.44
462.519	1376.44
462.626	1537.44
462.732	1591.44
462.838	1697.44
462.945	1785.44
463.051	1674.44
463.157	1602.44
463.264	1519.44
463.37	1540.44
463.476	1538.44
463.583	1409.44
463.689	1360.44
463.795	1481.44
463.901	1497.44
464.008	1610.44
464.114	1490.44
464.22	1407.44
464.326	1491.44
464.433	1359.44
464.539	1408.44
464.645	1332.44
464.751	1520.44
464.857	1376.44
464.963	1168.44
465.07	1226.44
465.176	1235.44
465.282	1120.44
465.388	1180.44
465.494	958.44
465.6	1036.44
465.706	965.44
465.812	892.44
465.918	1081.44
466.024	932.44
466.131	992.44
466.237	930.44
466.343	817.44
466.449	850.44
466.555	866.44
466.661	822.44
466.767	790.44
466.873	909.44
466.979	1022.44
467.085	835.44
467.191	896.44
467.296	874.44
467.402	850.44
467.508	888.44
467.614	993.44
467.72	752.44
467.826	742.44
467.932	878.44
468.038	731.44
468.144	802.44
468.25	766.44
468.355	740.44
468.461	777.44
468.567	725.44
468.673	834.44
468.779	802.44
468.885	722.44
468.99	766.44
469.096	760.44
469.202	886.44
469.308	884.44
469.413	882.44
469.519	752.44
469.625	790.44
469.731	858.44
469.836	784.44
469.942	1004.44
470.048	918.44
470.153	851.44
470.259	839.44
470.365	978.44
470.47	896.44
470.576	853.44
470.682	839.44
470.787	772.44
470.893	745.44
470.999	783.44
471.104	821.44
471.21	734.44
471.315	645.44
471.421	690.44
471.527	904.44
471.632	789.44
471.738	779.44
471.843	664.44
471.949	731.44
472.054	778.44
472.16	617.44
472.265	665.44
472.371	674.44
472.476	737.44
472.582	759.44
472.687	693.44
472.793	687.44
472.898	659.44
473.003	613.44
473.109	665.44
473.214	590.44
473.32	616.44
473.425	751.44
473.53	666.44
473.636	609.44
473.741	621.44
473.847	613.44
473.952	660.44
474.057	731.44
474.163	738.44
474.268	610.44
474.373	730.44
474.478	610.44
474.584	600.44
474.689	689.44
474.794	770.44
474.9	907.44
475.005	599.44
475.11	823.44
475.215	644.44
475.321	681.44
475.426	882.44
475.531	807.44
475.636	638.44
475.741	639.44
475.846	837.44
475.952	881.44
476.057	734.44
476.162	803.44
476.267	858.44
476.372	955.44
476.477	663.44
476.582	814.44
476.687	674.44
476.793	693.44
476.898	695.44
477.003	716.44
477.108	695.44
477.213	682.44
477.318	677.44
477.423	763.44
477.528	875.44
477.633	871.44
477.738	793.44
477.843	715.44
477.948	773.44
478.053	735.44
478.158	766.44
478.263	870.44
478.368	809.44
478.473	883.44
478.578	897.44
478.682	750.44
478.787	883.44
478.892	818.44
478.997	879.44
479.102	822.44
479.207	817.44
479.312	966.44
479.417	833.44
479.521	856.44
479.626	1002.44
479.731	842.44
479.836	839.44
479.941	994.44
480.045	964.44
480.15	999.44
480.255	952.44
480.36	920.44
480.465	888.44
480.569	1069.44
480.674	913.44
480.779	846.44
480.883	815.44
480.988	975.44
481.093	907.44
481.197	883.44
481.302	894.44
481.407	886.44
481.511	2747.44
481.616	1055.44
481.721	846.44
481.825	1022.44
481.93	838.44
482.035	862.44
482.139	897.44
482.244	876.44
482.348	899.44
482.453	853.44
482.557	903.44
482.662	939.44
482.767	843.44
482.871	817.44
482.976	873.44
483.08	915.44
483.185	1077.44
483.289	898.44
483.394	960.44
483.498	941.44
483.603	881.44
483.707	987.44
483.811	996.44
483.916	1060.44
484.02	974.44
484.125	1056.44
484.229	1015.44
484.333	1120.44
484.438	996.44
484.542	972.44
484.647	936.44
484.751	1025.44
484.855	993.44
484.96	974.44
485.064	1118.44
485.168	1065.44
485.273	1018.44
485.377	1097.44
485.481	1275.44
485.585	1055.44
485.69	1067.44
485.794	1151.44
485.898	1083.44
486.002	1086.44
486.107	1141.44
486.211	1103.44
486.315	1151.44
486.419	1223.44
486.524	1086.44
486.628	1070.44
486.732	1067.44
486.836	1093.44
486.94	1153.44
487.044	1126.44
487.148	1086.44
487.253	1019.44
487.357	1044.44
487.461	1320.44
487.565	1159.44
487.669	1131.44
487.773	1120.44
487.877	1242.44
487.981	1154.44
488.085	1182.44
488.189	1165.44
488.293	1240.44
488.397	1594.44
488.501	1169.44
488.605	1070.44
488.709	1102.44
488.813	1101.44
488.917	1112.44
489.021	1156.44
489.125	1421.44
489.229	1127.44
489.333	1281.44
489.437	1189.44
489.541	1167.44
489.645	1067.44
489.749	1143.44
489.853	1204.44
489.956	1099.44
490.06	1160.44
490.164	1192.44
490.268	1100.44
490.372	1162.44
490.476	1160.44
490.579	1112.44
490.683	1767.44
490.787	1258.44
490.891	1108.44
490.995	1149.44
491.098	1156.44
491.202	1151.44
491.306	1156.44
491.41	1192.44
491.513	1182.44
491.617	1133.44
491.721	1290.44
491.824	1446.44
491.928	1143.44
492.032	1389.44
492.136	1184.44
492.239	1073.44
492.343	1156.44
492.446	1609.44
492.55	1303.44
492.654	1107.44
492.757	1073.44
492.861	1215.44
492.965	1134.44
493.068	1159.44
493.172	1144.44
493.275	1088.44
493.379	1125.44
493.482	1305.44
493.586	1314.44
493.689	1370.44
493.793	1177.44
493.896	1314.44
494	1217.44
494.103	1210.44
494.207	1528.44
494.31	1563.44
494.414	1209.44
494.517	1215.44
494.621	1119.44
494.724	1142.44
494.828	1084.44
494.931	1098.44
495.034	1078.44
495.138	1314.44
495.241	1166.44
495.345	1921.44
495.448	1292.44
495.551	1182.44
495.655	1093.44
495.758	1073.44
495.861	1109.44
495.965	1086.44
496.068	1136.44
496.171	1174.44
496.274	1108.44
496.378	1071.44
496.481	1223.44
496.584	1203.44
496.687	1129.44
496.791	1214.44
496.894	1255.44
496.997	1106.44
497.1	1186.44
497.204	1218.44
497.307	1114.44
497.41	1368.44
497.513	1434.44
497.616	1279.44
497.719	1206.44
497.823	1236.44
497.926	1249.44
498.029	1330.44
498.132	1340.44
498.235	1439.44
498.338	1445.44
498.441	1595.44
498.544	1492.44
498.647	1486.44
498.75	1679.44
498.853	1807.44
498.956	1740.44
499.059	1982.44
499.163	1796.44
499.266	2001.44
499.369	2095.44
499.471	2150.44
499.574	2406.44
499.677	2362.44
499.78	2547.44
499.883	2788.44
499.986	2920.44
500.089	2967.44
500.192	3083.44
500.295	3138.44
500.398	3043.44
500.501	2989.44
500.604	2891.44
500.707	2643.44
500.809	2560.44
500.912	2510.44
501.015	2311.44
501.118	2130.44
501.221	2144.44
501.324	1898.44
501.426	1792.44
501.529	1710.44
501.632	1699.44
501.735	1509.44
501.837	1513.44
501.94	1499.44
502.043	1418.44
502.146	1402.44
502.248	1437.44
502.351	1306.44
502.454	1282.44
502.557	1240.44
502.659	1238.44
502.762	1139.44
502.865	1151.44
502.967	1114.44
503.07	1150.44
503.173	1175.44
503.275	1123.44
503.378	1050.44
503.48	1033.44
503.583	1166.44
503.686	1113.44
503.788	1372.44
503.891	1123.44
503.993	1311.44
504.096	1058.44
504.198	1142.44
504.301	1111.44
504.403	1102.44
504.506	1115.44
504.608	1087.44
504.711	967.44
504.813	1069.44
504.916	1046.44
505.018	955.44
505.121	900.44
505.223	953.44
505.326	929.44
505.428	1003.44
505.531	922.44
505.633	926.44
505.735	781.44
505.838	818.44
505.94	938.44
506.042	772.44
506.145	739.44
506.247	936.44
506.35	789.44
506.452	911.44
506.554	932.44
506.656	894.44
506.759	731.44
506.861	831.44
506.963	876.44
507.066	926.44
507.168	921.44
507.27	803.44
507.372	769.44
507.475	800.44
507.577	886.44
507.679	806.44
507.781	717.44
507.883	761.44
507.986	754.44
508.088	707.44
508.19	771.44
508.292	854.44
508.394	755.44
508.496	708.44
508.598	719.44
508.701	741.44
508.803	701.44
508.905	737.44
509.007	752.44
509.109	810.44
509.211	805.44
509.313	735.44
509.415	686.44
509.517	759.44
509.619	789.44
509.721	818.44
509.823	769.44
509.925	927.44
510.027	773.44
510.129	745.44
510.231	774.44
510.333	698.44
510.435	705.44
510.537	732.44
510.639	798.44
510.741	738.44
510.843	792.44
510.945	760.44
511.047	795.44
511.148	759.44
511.25	743.44
511.352	779.44
511.454	699.44
511.556	834.44
511.658	739.44
511.76	815.44
511.861	899.44
511.963	737.44
512.065	699.44
512.167	711.44
512.268	931.44
512.37	814.44
512.472	710.44
512.574	825.44
512.676	818.44
512.777	678.44
512.879	726.44
512.981	663.44
513.082	716.44
513.184	744.44
513.286	1267.44
513.387	842.44
513.489	875.44
513.591	884.44
513.692	839.44
513.794	827.44
513.896	754.44
513.997	693.44
514.099	668.44
514.2	759.44
514.302	801.44
514.404	750.44
514.505	723.44
514.607	825.44
514.708	786.44
514.81	826.44
514.911	903.44
515.013	822.44
515.114	871.44
515.216	872.44
515.317	832.44
515.419	773.44
515.52	857.44
515.622	841.44
515.723	865.44
515.825	993.44
515.926	939.44
516.027	821.44
516.129	851.44
516.23	997.44
516.332	973.44
516.433	943.44
516.534	1036.44
516.636	906.44
516.737	881.44
516.838	2107.44
516.94	1175.44
517.041	1039.44
517.142	1219.44
517.244	1310.44
517.345	1179.44
517.446	1144.44
517.547	1281.44
517.649	1081.44
517.75	1194.44
517.851	1147.44
517.952	1397.44
518.054	1211.44
518.155	1261.44
518.256	1086.44
518.357	1180.44
518.458	961.44
518.56	1023.44
518.661	1066.44
518.762	1025.44
518.863	1182.44
518.964	1094.44
519.065	919.44
519.166	916.44
519.268	873.44
519.369	1201.44
519.47	937.44
519.571	934.44
519.672	801.44
519.773	880.44
519.874	963.44
519.975	935.44
520.076	906.44
520.177	1072.44
520.278	887.44
520.379	942.44
520.48	881.44
520.581	836.44
520.682	867.44
520.783	885.44
520.884	925.44
520.985	910.44
521.086	881.44
521.187	1031.44
521.288	880.44
521.389	924.44
521.489	916.44
521.59	827.44
521.691	856.44
521.792	861.44
521.893	990.44
521.994	1047.44
522.095	970.44
522.195	974.44
522.296	1023.44
522.397	990.44
522.498	964.44
522.599	811.44
522.699	844.44
522.8	958.44
522.901	1014.44
523.002	917.44
523.102	1168.44
523.203	870.44
523.304	1030.44
523.405	892.44
523.505	893.44
523.606	919.44
523.707	925.44
523.807	936.44
523.908	864.44
524.009	1055.44
524.109	1015.44
524.21	842.44
524.31	956.44
524.411	1057.44
524.512	1025.44
524.612	914.44
524.713	1064.44
524.813	967.44
524.914	1160.44
525.014	7155.44
525.115	1515.44
525.216	814.44
525.316	917.44
525.417	975.44
525.517	885.44
525.618	891.44
525.718	886.44
525.819	854.44
525.919	914.44
526.019	861.44
526.12	969.44
526.22	884.44
526.321	864.44
526.421	896.44
526.522	866.44
526.622	839.44
526.722	889.44
526.823	851.44
526.923	928.44
527.023	1064.44
527.124	937.44
527.224	992.44
527.324	874.44
527.425	946.44
527.525	828.44
527.625	863.44
527.726	895.44
527.826	934.44
527.926	890.44
528.026	954.44
528.127	896.44
528.227	845.44
528.327	983.44
528.427	880.44
528.528	931.44
528.628	948.44
528.728	996.44
528.828	970.44
528.928	970.44
529.029	987.44
529.129	894.44
529.229	956.44
529.329	998.44
529.429	997.44
529.529	1033.44
529.629	982.44
529.729	938.44
529.829	1092.44
529.93	884.44
530.03	1031.44
530.13	952.44
530.23	950.44
530.33	1144.44
530.43	908.44
530.53	967.44
530.63	1018.44
530.73	863.44
530.83	860.44
530.93	833.44
531.03	912.44
531.13	946.44
531.23	879.44
531.33	979.44
531.429	975.44
531.529	1099.44
531.629	999.44
531.729	812.44
531.829	846.44
531.929	928.44
532.029	914.44
532.129	873.44
532.229	959.44
532.328	907.44
532.428	850.44
532.528	815.44
532.628	876.44
532.728	917.44
532.827	867.44
532.927	982.44
533.027	823.44
533.127	972.44
533.227	955.44
533.326	868.44
533.426	830.44
533.526	969.44
533.625	1013.44
533.725	1178.44
533.825	923.44
533.924	864.44
534.024	795.44
534.124	811.44
534.223	916.44
534.323	1240.44
534.423	875.44
534.522	915.44
534.622	798.44
534.722	791.44
534.821	854.44
534.921	842.44
535.02	756.44
535.12	917.44
535.219	1032.44
535.319	873.44
535.419	915.44
535.518	839.44
535.618	860.44
535.717	905.44
535.817	782.44
535.916	674.44
536.016	836.44
536.115	809.44
536.215	822.44
536.314	697.44
536.413	696.44
536.513	797.44
536.612	730.44
536.712	740.44
536.811	772.44
536.91	688.44
537.01	680.44
537.109	797.44
537.209	743.44
537.308	736.44
537.407	714.44
537.507	754.44
537.606	695.44
537.705	838.44
537.805	804.44
537.904	626.44
538.003	758.44
538.102	885.44
538.202	724.44
538.301	853.44
538.4	827.44
538.499	776.44
538.599	758.44
538.698	969.44
538.797	749.44
538.896	796.44
538.995	757.44
539.095	738.44
539.194	903.44
539.293	715.44
539.392	751.44
539.491	739.44
539.59	708.44
539.689	907.44
539.789	866.44
539.888	624.44
539.987	636.44
540.086	735.44
540.185	688.44
540.284	771.44
540.383	804.44
540.482	647.44
540.581	711.44
540.68	722.44
540.779	744.44
540.878	686.44
540.977	803.44
541.076	718.44
541.175	743.44
541.274	976.44
541.373	827.44
541.472	720.44
541.571	659.44
541.67	2110.44
541.769	903.44
541.868	762.44
541.966	854.44
542.065	751.44
542.164	747.44
542.263	710.44
542.362	725.44
542.461	778.44
542.56	755.44
542.658	812.44
542.757	657.44
542.856	602.44
542.955	668.44
543.054	597.44
543.152	836.44
543.251	730.44
543.35	799.44
543.449	731.44
543.547	744.44
543.646	694.44
543.745	743.44
