Data from 42g_HRC06701__30__517.txt Node

Date: Thu Apr 18 02:42:33 CDT 2024
User: Estudiantes 2
Spectrometer: HR+C0670
Trigger mode: 4
Integration Time (sec): 1.000000E0
Scans to average: 1
Electric dark correction enabled: true
Nonlinearity correction enabled: false
Boxcar width: 0
XAxis mode: Wavelengths
Number of Pixels in Spectrum: 2048
>>>>>Begin Spectral Data<<<<<
407.81	-139.69
407.921	-139.69
408.032	-139.69
408.143	-115.69
408.254	-147.69
408.365	12.31
408.476	317.31
408.587	3.31
408.699	-47.69
408.81	-50.69
408.921	-44.69
409.032	-70.69
409.143	40.31
409.254	65.31
409.365	82.31
409.476	-43.69
409.587	45.31
409.698	94.31
409.809	96.31
409.92	-29.69
410.031	-12.69
410.142	50.31
410.253	23.31
410.364	83.31
410.475	1539.31
410.585	7222.31
410.696	7785.31
410.807	7556.31
410.918	7592.31
411.029	7784.31
411.14	7720.31
411.251	7721.31
411.362	7797.31
411.472	8046.31
411.583	7820.31
411.694	8095.31
411.805	8111.31
411.916	8152.31
412.026	8178.31
412.137	7966.31
412.248	7894.31
412.359	7906.31
412.47	7701.31
412.58	7596.31
412.691	7832.31
412.802	7749.31
412.912	7752.31
413.023	7698.31
413.134	7797.31
413.245	7843.31
413.355	7799.31
413.466	7685.31
413.577	7771.31
413.687	7800.31
413.798	7545.31
413.909	7855.31
414.019	7897.31
414.13	8047.31
414.24	7960.31
414.351	8042.31
414.462	8285.31
414.572	8007.31
414.683	8014.31
414.793	7882.31
414.904	8229.31
415.014	7900.31
415.125	7714.31
415.235	7934.31
415.346	8064.31
415.456	7953.31
415.567	7799.31
415.677	7855.31
415.788	7904.31
415.898	7846.31
416.009	7792.31
416.119	7919.31
416.23	7926.31
416.34	7931.31
416.45	7894.31
416.561	8800.31
416.671	7864.31
416.782	7899.31
416.892	8058.31
417.002	8141.31
417.113	8301.31
417.223	8172.31
417.333	8074.31
417.444	8175.31
417.554	8344.31
417.664	8389.31
417.775	8262.31
417.885	8691.31
417.995	8515.31
418.106	8820.31
418.216	8715.31
418.326	9064.31
418.436	9070.31
418.547	8997.31
418.657	9102.31
418.767	9336.31
418.877	9244.31
418.987	9231.31
419.098	9218.31
419.208	9187.31
419.318	9200.31
419.428	9261.31
419.538	9114.31
419.648	9259.31
419.759	9157.31
419.869	9086.31
419.979	9172.31
420.089	9259.31
420.199	9303.31
420.309	9318.31
420.419	9345.31
420.529	9280.31
420.639	9654.31
420.749	9419.31
420.859	9445.31
420.969	9509.31
421.079	9805.31
421.189	9447.31
421.299	9226.31
421.409	9556.31
421.519	9597.31
421.629	9951.31
421.739	9581.31
421.849	9852.31
421.959	9787.31
422.069	9888.31
422.179	10092.31
422.289	10128.31
422.399	10405.31
422.509	10646.31
422.619	14404.31
422.729	10789.31
422.838	10487.31
422.948	10832.31
423.058	10705.31
423.168	10891.31
423.278	11001.31
423.388	11114.31
423.498	11452.31
423.607	11340.31
423.717	11656.31
423.827	11795.31
423.937	11491.31
424.046	11574.31
424.156	11695.31
424.266	11556.31
424.376	12034.31
424.485	11799.31
424.595	11786.31
424.705	11968.31
424.815	11862.31
424.924	12279.31
425.034	11788.31
425.144	11698.31
425.253	11974.31
425.363	12020.31
425.473	12012.31
425.582	11690.31
425.692	11909.31
425.801	11905.31
425.911	12255.31
426.021	12113.31
426.13	12285.31
426.24	12287.31
426.349	12242.31
426.459	12324.31
426.568	12341.31
426.678	12398.31
426.787	12362.31
426.897	12465.31
427.006	12533.31
427.116	12648.31
427.225	12624.31
427.335	12897.31
427.444	12773.31
427.554	12717.31
427.663	12897.31
427.773	12818.31
427.882	13047.31
427.992	13028.31
428.101	13120.31
428.21	12997.31
428.32	13232.31
428.429	13075.31
428.539	13488.31
428.648	13418.31
428.757	13327.31
428.867	13560.31
428.976	13870.31
429.085	13564.31
429.195	13698.31
429.304	13825.31
429.413	13756.31
429.523	13825.31
429.632	13774.31
429.741	14048.31
429.85	13926.31
429.96	14052.31
430.069	14100.31
430.178	14033.31
430.287	14463.31
430.397	14434.31
430.506	14222.31
430.615	14358.31
430.724	14561.31
430.833	14585.31
430.943	14579.31
431.052	14585.31
431.161	14585.31
431.27	14585.31
431.379	14585.31
431.488	14585.31
431.597	14585.31
431.706	14585.31
431.816	14585.31
431.925	14585.31
432.034	14585.31
432.143	14585.31
432.252	14585.31
432.361	14585.31
432.47	14585.31
432.579	14585.31
432.688	14585.31
432.797	14585.31
432.906	14585.31
433.015	14585.31
433.124	14585.31
433.233	14585.31
433.342	14585.31
433.451	14585.31
433.56	14585.31
433.669	14585.31
433.778	14585.31
433.886	14585.31
433.995	14585.31
434.104	14585.31
434.213	14585.31
434.322	14585.31
434.431	14585.31
434.54	14585.31
434.649	14585.31
434.757	14585.31
434.866	14585.31
434.975	14585.31
435.084	14585.31
435.193	14585.31
435.301	14585.31
435.41	14585.31
435.519	14585.31
435.628	14585.31
435.737	14585.31
435.845	14585.31
435.954	14585.31
436.063	14585.31
436.171	14585.31
436.28	14585.31
436.389	14585.31
436.498	14585.31
436.606	14585.31
436.715	14585.31
436.823	14585.31
436.932	14576.31
437.041	14287.31
437.149	14468.31
437.258	14086.31
437.367	13928.31
437.475	14014.31
437.584	14287.31
437.692	13790.31
437.801	14585.31
437.91	13781.31
438.018	13646.31
438.127	13716.31
438.235	13884.31
438.344	13919.31
438.452	13539.31
438.561	13646.31
438.669	13696.31
438.778	13455.31
438.886	13664.31
438.995	13602.31
439.103	13460.31
439.212	13615.31
439.32	13918.31
439.428	13666.31
439.537	13699.31
439.645	14093.31
439.754	13983.31
439.862	13815.31
439.97	13965.31
440.079	13976.31
440.187	13894.31
440.295	14314.31
440.404	14273.31
440.512	14251.31
440.62	14312.31
440.729	14585.31
440.837	14585.31
440.945	14585.31
441.054	14585.31
441.162	14585.31
441.27	14585.31
441.378	14585.31
441.487	14585.31
441.595	14585.31
441.703	14585.31
441.811	14585.31
441.92	14585.31
442.028	14585.31
442.136	14585.31
442.244	14585.31
442.352	14585.31
442.461	14585.31
442.569	14585.31
442.677	14585.31
442.785	14585.31
442.893	14585.31
443.001	14585.31
443.109	14585.31
443.217	14585.31
443.325	14585.31
443.434	14585.31
443.542	14585.31
443.65	14585.31
443.758	14585.31
443.866	14585.31
443.974	14585.31
444.082	14585.31
444.19	14585.31
444.298	14585.31
444.406	14585.31
444.514	14585.31
444.622	14585.31
444.73	14585.31
444.838	14585.31
444.946	14585.31
445.054	14585.31
445.161	14585.31
445.269	14585.31
445.377	14585.31
445.485	14585.31
445.593	14585.31
445.701	14585.31
445.809	14585.31
445.917	14585.31
446.025	14585.31
446.132	14585.31
446.24	14585.31
446.348	14585.31
446.456	14585.31
446.564	14585.31
446.671	14585.31
446.779	14585.31
446.887	14585.31
446.995	14585.31
447.102	14585.31
447.21	14585.31
447.318	14585.31
447.426	14585.31
447.533	14585.31
447.641	14585.31
447.749	14547.31
447.856	14417.31
447.964	14530.31
448.072	14585.31
448.179	14492.31
448.287	14559.31
448.395	14585.31
448.502	14465.31
448.61	14585.31
448.718	14585.31
448.825	14585.31
448.933	14585.31
449.04	14585.31
449.148	14585.31
449.256	14585.31
449.363	14585.31
449.471	14585.31
449.578	14585.31
449.686	14585.31
449.793	14585.31
449.901	14585.31
450.008	14585.31
450.116	14585.31
450.223	14585.31
450.331	14585.31
450.438	14585.31
450.546	14585.31
450.653	14585.31
450.76	14585.31
450.868	14585.31
450.975	14585.31
451.083	14585.31
451.19	14585.31
451.297	14585.31
451.405	14585.31
451.512	14585.31
451.619	14585.31
451.727	14585.31
451.834	14585.31
451.941	14585.31
452.049	14585.31
452.156	14585.31
452.263	14585.31
452.371	14585.31
452.478	14585.31
452.585	14585.31
452.692	14585.31
452.8	14585.31
452.907	14585.31
453.014	14585.31
453.121	14585.31
453.229	14585.31
453.336	14585.31
453.443	14585.31
453.55	14585.31
453.657	14585.31
453.765	14585.31
453.872	14585.31
453.979	14585.31
454.086	14585.31
454.193	14585.31
454.3	14585.31
454.407	14585.31
454.514	14585.31
454.621	14585.31
454.729	14585.31
454.836	14585.31
454.943	14585.31
455.05	14585.31
455.157	14585.31
455.264	14585.31
455.371	14585.31
455.478	14585.31
455.585	14585.31
455.692	14585.31
455.799	14585.31
455.906	14585.31
456.013	14585.31
456.12	14585.31
456.227	14585.31
456.334	14585.31
456.44	14585.31
456.547	14585.31
456.654	14585.31
456.761	14585.31
456.868	14585.31
456.975	14585.31
457.082	14585.31
457.189	14585.31
457.296	14585.31
457.402	14585.31
457.509	14585.31
457.616	14585.31
457.723	14585.31
457.83	14585.31
457.936	14585.31
458.043	14585.31
458.15	14585.31
458.257	14585.31
458.363	14585.31
458.47	14585.31
458.577	14585.31
458.684	14585.31
458.79	14585.31
458.897	14585.31
459.004	14585.31
459.11	14585.31
459.217	14585.31
459.324	14585.31
459.43	14585.31
459.537	14585.31
459.644	14585.31
459.75	14585.31
459.857	14585.31
459.964	14585.31
460.07	14585.31
460.177	14585.31
460.283	14585.31
460.39	14585.31
460.496	14585.31
460.603	14585.31
460.71	14585.31
460.816	14585.31
460.923	14585.31
461.029	14585.31
461.136	14585.31
461.242	14585.31
461.349	14585.31
461.455	14585.31
461.562	14585.31
461.668	14585.31
461.774	14585.31
461.881	14585.31
461.987	14585.31
462.094	14585.31
462.2	14585.31
462.307	14585.31
462.413	14585.31
462.519	14585.31
462.626	14585.31
462.732	14585.31
462.838	14585.31
462.945	14585.31
463.051	14585.31
463.157	14585.31
463.264	14585.31
463.37	14585.31
463.476	14585.31
463.583	14585.31
463.689	14585.31
463.795	14585.31
463.901	14585.31
464.008	14585.31
464.114	14585.31
464.22	14585.31
464.326	14585.31
464.433	14585.31
464.539	14585.31
464.645	14585.31
464.751	14585.31
464.857	14585.31
464.963	14585.31
465.07	14585.31
465.176	14585.31
465.282	14585.31
465.388	14585.31
465.494	14585.31
465.6	14585.31
465.706	14585.31
465.812	14585.31
465.918	14585.31
466.024	14585.31
466.131	14585.31
466.237	14585.31
466.343	14585.31
466.449	14585.31
466.555	14585.31
466.661	14585.31
466.767	14585.31
466.873	14585.31
466.979	14585.31
467.085	14585.31
467.191	14585.31
467.296	14585.31
467.402	14585.31
467.508	14585.31
467.614	14585.31
467.72	14585.31
467.826	14585.31
467.932	14585.31
468.038	14585.31
468.144	14585.31
468.25	14585.31
468.355	14585.31
468.461	14585.31
468.567	14585.31
468.673	14585.31
468.779	14585.31
468.885	14585.31
468.99	14585.31
469.096	14585.31
469.202	14585.31
469.308	14585.31
469.413	14585.31
469.519	14585.31
469.625	14585.31
469.731	14585.31
469.836	14585.31
469.942	14585.31
470.048	14585.31
470.153	14585.31
470.259	14585.31
470.365	14585.31
470.47	14585.31
470.576	14585.31
470.682	14585.31
470.787	14585.31
470.893	14585.31
470.999	14585.31
471.104	14585.31
471.21	14585.31
471.315	14585.31
471.421	14585.31
471.527	14585.31
471.632	14585.31
471.738	14585.31
471.843	14585.31
471.949	14585.31
472.054	14585.31
472.16	14585.31
472.265	14585.31
472.371	14585.31
472.476	14585.31
472.582	14585.31
472.687	14585.31
472.793	14585.31
472.898	14585.31
473.003	14585.31
473.109	14585.31
473.214	14585.31
473.32	14585.31
473.425	14585.31
473.53	14585.31
473.636	14585.31
473.741	14585.31
473.847	14585.31
473.952	14585.31
474.057	14585.31
474.163	14585.31
474.268	14585.31
474.373	14585.31
474.478	14585.31
474.584	14585.31
474.689	14585.31
474.794	14585.31
474.9	14585.31
475.005	14585.31
475.11	14585.31
475.215	14585.31
475.321	14585.31
475.426	14585.31
475.531	14585.31
475.636	14585.31
475.741	14585.31
475.846	14585.31
475.952	14585.31
476.057	14585.31
476.162	14585.31
476.267	14585.31
476.372	14585.31
476.477	14585.31
476.582	14585.31
476.687	14585.31
476.793	14585.31
476.898	14585.31
477.003	14585.31
477.108	14585.31
477.213	14585.31
477.318	14585.31
477.423	14585.31
477.528	14585.31
477.633	14585.31
477.738	14585.31
477.843	14585.31
477.948	14585.31
478.053	14585.31
478.158	14585.31
478.263	14585.31
478.368	14585.31
478.473	14585.31
478.578	14585.31
478.682	14585.31
478.787	14585.31
478.892	14585.31
478.997	14585.31
479.102	14585.31
479.207	14585.31
479.312	14585.31
479.417	14585.31
479.521	14585.31
479.626	14585.31
479.731	14585.31
479.836	14585.31
479.941	14585.31
480.045	14585.31
480.15	14585.31
480.255	14585.31
480.36	14585.31
480.465	14585.31
480.569	14585.31
480.674	14585.31
480.779	14585.31
480.883	14585.31
480.988	14585.31
481.093	14585.31
481.197	14585.31
481.302	14585.31
481.407	14585.31
481.511	14585.31
481.616	14585.31
481.721	14585.31
481.825	14585.31
481.93	14585.31
482.035	14585.31
482.139	14585.31
482.244	14585.31
482.348	14585.31
482.453	14585.31
482.557	14585.31
482.662	14585.31
482.767	14585.31
482.871	14585.31
482.976	14585.31
483.08	14585.31
483.185	14585.31
483.289	14585.31
483.394	14585.31
483.498	14585.31
483.603	14585.31
483.707	14585.31
483.811	14585.31
483.916	14585.31
484.02	14585.31
484.125	14585.31
484.229	14585.31
484.333	14585.31
484.438	14585.31
484.542	14585.31
484.647	14585.31
484.751	14585.31
484.855	14585.31
484.96	14585.31
485.064	14585.31
485.168	14585.31
485.273	14585.31
485.377	14585.31
485.481	14585.31
485.585	14585.31
485.69	14585.31
485.794	14585.31
485.898	14585.31
486.002	14585.31
486.107	14585.31
486.211	14585.31
486.315	14585.31
486.419	14585.31
486.524	14585.31
486.628	14585.31
486.732	14585.31
486.836	14585.31
486.94	14585.31
487.044	14585.31
487.148	14585.31
487.253	14585.31
487.357	14585.31
487.461	14585.31
487.565	14585.31
487.669	14585.31
487.773	14585.31
487.877	14585.31
487.981	14585.31
488.085	14585.31
488.189	14585.31
488.293	14585.31
488.397	14585.31
488.501	14585.31
488.605	14585.31
488.709	14585.31
488.813	14585.31
488.917	14585.31
489.021	14585.31
489.125	14585.31
489.229	14585.31
489.333	14585.31
489.437	14585.31
489.541	14585.31
489.645	14585.31
489.749	14585.31
489.853	14585.31
489.956	14585.31
490.06	14585.31
490.164	14585.31
490.268	14585.31
490.372	14585.31
490.476	14585.31
490.579	14585.31
490.683	14585.31
490.787	14585.31
490.891	14585.31
490.995	14585.31
491.098	14585.31
491.202	14585.31
491.306	14585.31
491.41	14585.31
491.513	14585.31
491.617	14585.31
491.721	14585.31
491.824	14585.31
491.928	14585.31
492.032	14585.31
492.136	14585.31
492.239	14585.31
492.343	14585.31
492.446	14585.31
492.55	14585.31
492.654	14585.31
492.757	14585.31
492.861	14585.31
492.965	14585.31
493.068	14585.31
493.172	14585.31
493.275	14585.31
493.379	14585.31
493.482	14585.31
493.586	14585.31
493.689	14585.31
493.793	14585.31
493.896	14585.31
494	14585.31
494.103	14585.31
494.207	14585.31
494.31	14585.31
494.414	14585.31
494.517	14585.31
494.621	14585.31
494.724	14585.31
494.828	14585.31
494.931	14585.31
495.034	14585.31
495.138	14585.31
495.241	14585.31
495.345	14585.31
495.448	14585.31
495.551	14585.31
495.655	14585.31
495.758	14585.31
495.861	14585.31
495.965	14585.31
496.068	14585.31
496.171	14585.31
496.274	14585.31
496.378	14585.31
496.481	14585.31
496.584	14585.31
496.687	14585.31
496.791	14585.31
496.894	14585.31
496.997	14585.31
497.1	14585.31
497.204	14585.31
497.307	14585.31
497.41	14585.31
497.513	14585.31
497.616	14585.31
497.719	14585.31
497.823	14585.31
497.926	14585.31
498.029	14585.31
498.132	14585.31
498.235	14585.31
498.338	14585.31
498.441	14585.31
498.544	14585.31
498.647	14585.31
498.75	14585.31
498.853	14585.31
498.956	14585.31
499.059	14585.31
499.163	14585.31
499.266	14585.31
499.369	14585.31
499.471	14585.31
499.574	14585.31
499.677	14585.31
499.78	14585.31
499.883	14585.31
499.986	14585.31
500.089	14585.31
500.192	14585.31
500.295	14585.31
500.398	14585.31
500.501	14585.31
500.604	14585.31
500.707	14585.31
500.809	14585.31
500.912	14585.31
501.015	14585.31
501.118	14585.31
501.221	14585.31
501.324	14585.31
501.426	14585.31
501.529	14585.31
501.632	14585.31
501.735	14585.31
501.837	14585.31
501.94	14585.31
502.043	14585.31
502.146	14585.31
502.248	14585.31
502.351	14585.31
502.454	14585.31
502.557	14585.31
502.659	14585.31
502.762	14585.31
502.865	14585.31
502.967	14585.31
503.07	14585.31
503.173	14585.31
503.275	14585.31
503.378	14585.31
503.48	14585.31
503.583	14585.31
503.686	14585.31
503.788	14585.31
503.891	14585.31
503.993	14585.31
504.096	14585.31
504.198	14585.31
504.301	14585.31
504.403	14585.31
504.506	14585.31
504.608	14585.31
504.711	14585.31
504.813	14585.31
504.916	14585.31
505.018	14585.31
505.121	14585.31
505.223	14585.31
505.326	14585.31
505.428	14585.31
505.531	14585.31
505.633	14585.31
505.735	14585.31
505.838	14585.31
505.94	14585.31
506.042	14585.31
506.145	14585.31
506.247	14585.31
506.35	14585.31
506.452	14585.31
506.554	14585.31
506.656	14585.31
506.759	14585.31
506.861	14585.31
506.963	14585.31
507.066	14585.31
507.168	14585.31
507.27	14585.31
507.372	14585.31
507.475	14585.31
507.577	14585.31
507.679	14585.31
507.781	14585.31
507.883	14585.31
507.986	14585.31
508.088	14585.31
508.19	14585.31
508.292	14585.31
508.394	14585.31
508.496	14585.31
508.598	14585.31
508.701	14585.31
508.803	14585.31
508.905	14585.31
509.007	14585.31
509.109	14585.31
509.211	14585.31
509.313	14585.31
509.415	14585.31
509.517	14585.31
509.619	14585.31
509.721	14585.31
509.823	14585.31
509.925	14585.31
510.027	14585.31
510.129	14585.31
510.231	14585.31
510.333	14585.31
510.435	14585.31
510.537	14585.31
510.639	14585.31
510.741	14585.31
510.843	14585.31
510.945	14585.31
511.047	14585.31
511.148	14585.31
511.25	14585.31
511.352	14585.31
511.454	14536.31
511.556	14585.31
511.658	14585.31
511.76	14585.31
511.861	14585.31
511.963	14585.31
512.065	14585.31
512.167	14585.31
512.268	14585.31
512.37	14585.31
512.472	14585.31
512.574	14585.31
512.676	14585.31
512.777	14585.31
512.879	14585.31
512.981	14585.31
513.082	14585.31
513.184	14585.31
513.286	14585.31
513.387	14585.31
513.489	14585.31
513.591	14585.31
513.692	14585.31
513.794	14585.31
513.896	14585.31
513.997	14585.31
514.099	14585.31
514.2	14585.31
514.302	14585.31
514.404	14585.31
514.505	14585.31
514.607	14585.31
514.708	14585.31
514.81	14585.31
514.911	14585.31
515.013	14585.31
515.114	14585.31
515.216	14585.31
515.317	14585.31
515.419	14585.31
515.52	14585.31
515.622	14585.31
515.723	14585.31
515.825	14585.31
515.926	14585.31
516.027	14585.31
516.129	14585.31
516.23	14585.31
516.332	14585.31
516.433	14585.31
516.534	14585.31
516.636	14585.31
516.737	14585.31
516.838	14585.31
516.94	14585.31
517.041	14585.31
517.142	14585.31
517.244	14585.31
517.345	14585.31
517.446	14585.31
517.547	14585.31
517.649	14585.31
517.75	14585.31
517.851	14585.31
517.952	14585.31
518.054	14585.31
518.155	14585.31
518.256	14585.31
518.357	14585.31
518.458	14585.31
518.56	14585.31
518.661	14585.31
518.762	14585.31
518.863	14585.31
518.964	14585.31
519.065	14585.31
519.166	14585.31
519.268	14585.31
519.369	14585.31
519.47	14585.31
519.571	14585.31
519.672	14585.31
519.773	14585.31
519.874	14585.31
519.975	14585.31
520.076	14585.31
520.177	14585.31
520.278	14585.31
520.379	14585.31
520.48	14585.31
520.581	14585.31
520.682	14585.31
520.783	14585.31
520.884	14585.31
520.985	14585.31
521.086	14585.31
521.187	14585.31
521.288	14585.31
521.389	14585.31
521.489	14585.31
521.59	14585.31
521.691	14585.31
521.792	14585.31
521.893	14585.31
521.994	14585.31
522.095	14585.31
522.195	14585.31
522.296	14585.31
522.397	14585.31
522.498	14585.31
522.599	14585.31
522.699	14585.31
522.8	14585.31
522.901	14585.31
523.002	14585.31
523.102	14585.31
523.203	14585.31
523.304	14585.31
523.405	14585.31
523.505	14585.31
523.606	14585.31
523.707	14585.31
523.807	14585.31
523.908	14585.31
524.009	14585.31
524.109	14585.31
524.21	14585.31
524.31	14585.31
524.411	14585.31
524.512	14585.31
524.612	14585.31
524.713	14585.31
524.813	14585.31
524.914	14585.31
525.014	14585.31
525.115	14585.31
525.216	14585.31
525.316	14585.31
525.417	14585.31
525.517	14585.31
525.618	14585.31
525.718	14585.31
525.819	14585.31
525.919	14585.31
526.019	14585.31
526.12	14585.31
526.22	14585.31
526.321	14585.31
526.421	14585.31
526.522	14585.31
526.622	14585.31
526.722	14585.31
526.823	14585.31
526.923	14585.31
527.023	14585.31
527.124	14585.31
527.224	14585.31
527.324	14585.31
527.425	14585.31
527.525	14585.31
527.625	14585.31
527.726	14585.31
527.826	14585.31
527.926	14585.31
528.026	14585.31
528.127	14585.31
528.227	14585.31
528.327	14585.31
528.427	14585.31
528.528	14585.31
528.628	14585.31
528.728	14585.31
528.828	14585.31
528.928	14585.31
529.029	14585.31
529.129	14585.31
529.229	14585.31
529.329	14585.31
529.429	14585.31
529.529	14585.31
529.629	14585.31
529.729	14585.31
529.829	14585.31
529.93	14585.31
530.03	14585.31
530.13	14585.31
530.23	14585.31
530.33	14585.31
530.43	14585.31
530.53	14585.31
530.63	14585.31
530.73	14585.31
530.83	14585.31
530.93	14585.31
531.03	14585.31
531.13	14585.31
531.23	14585.31
531.33	14585.31
531.429	14585.31
