Data from 42g_HRC06701__55__542.txt Node

Date: Thu Apr 18 02:42:58 CDT 2024
User: Estudiantes 2
Spectrometer: HR+C0670
Trigger mode: 4
Integration Time (sec): 1.000000E0
Scans to average: 1
Electric dark correction enabled: true
Nonlinearity correction enabled: false
Boxcar width: 0
XAxis mode: Wavelengths
Number of Pixels in Spectrum: 2048
>>>>>Begin Spectral Data<<<<<
407.81	-132.25
407.921	-132.25
408.032	-132.25
408.143	-121.25
408.254	-156.25
408.365	17.75
408.476	300.75
408.587	-36.25
408.699	-26.25
408.81	45.75
408.921	-59.25
409.032	-36.25
409.143	62.75
409.254	22.75
409.365	55.75
409.476	-23.25
409.587	26.75
409.698	58.75
409.809	105.75
409.92	3.75
410.031	-44.25
410.142	90.75
410.253	77.75
410.364	1.75
410.475	341.75
410.585	1795.75
410.696	1977.75
410.807	1823.75
410.918	1855.75
411.029	1944.75
411.14	1914.75
411.251	1908.75
411.362	1995.75
411.472	2019.75
411.583	2019.75
411.694	2102.75
411.805	1984.75
411.916	1999.75
412.026	2115.75
412.137	1998.75
412.248	1916.75
412.359	1931.75
412.47	1859.75
412.58	1826.75
412.691	1975.75
412.802	1982.75
412.912	1878.75
413.023	1915.75
413.134	1962.75
413.245	1996.75
413.355	1899.75
413.466	1959.75
413.577	1904.75
413.687	2062.75
413.798	1832.75
413.909	2044.75
414.019	1954.75
414.13	2016.75
414.24	2013.75
414.351	2042.75
414.462	2196.75
414.572	2093.75
414.683	2028.75
414.793	1904.75
414.904	2289.75
415.014	2041.75
415.125	1875.75
415.235	2020.75
415.346	2171.75
415.456	2087.75
415.567	2000.75
415.677	1973.75
415.788	1937.75
415.898	1914.75
416.009	2040.75
416.119	2059.75
416.23	1934.75
416.34	1932.75
416.45	2026.75
416.561	2789.75
416.671	2067.75
416.782	1919.75
416.892	1930.75
417.002	1989.75
417.113	2134.75
417.223	2071.75
417.333	1990.75
417.444	2071.75
417.554	2122.75
417.664	2159.75
417.775	2020.75
417.885	2150.75
417.995	2105.75
418.106	2337.75
418.216	2261.75
418.326	2269.75
418.436	2241.75
418.547	2281.75
418.657	2252.75
418.767	2397.75
418.877	2290.75
418.987	2292.75
419.098	2379.75
419.208	2365.75
419.318	2395.75
419.428	2350.75
419.538	2241.75
419.648	2386.75
419.759	2329.75
419.869	2369.75
419.979	2312.75
420.089	2380.75
420.199	2316.75
420.309	2385.75
420.419	2306.75
420.529	2304.75
420.639	2919.75
420.749	2499.75
420.859	2441.75
420.969	2422.75
421.079	2704.75
421.189	2485.75
421.299	2394.75
421.409	2401.75
421.519	2504.75
421.629	2532.75
421.739	2472.75
421.849	2489.75
421.959	2425.75
422.069	2491.75
422.179	2545.75
422.289	2490.75
422.399	2623.75
422.509	2743.75
422.619	5484.75
422.729	2953.75
422.838	2653.75
422.948	2690.75
423.058	2726.75
423.168	2797.75
423.278	2786.75
423.388	2845.75
423.498	3013.75
423.607	2909.75
423.717	3172.75
423.827	3261.75
423.937	2959.75
424.046	3045.75
424.156	3106.75
424.266	2989.75
424.376	3231.75
424.485	3099.75
424.595	2992.75
424.705	3014.75
424.815	3033.75
424.924	3550.75
425.034	3076.75
425.144	2941.75
425.253	3043.75
425.363	3121.75
425.473	3058.75
425.582	2981.75
425.692	3057.75
425.801	2933.75
425.911	3162.75
426.021	3144.75
426.13	3184.75
426.24	3282.75
426.349	3178.75
426.459	3118.75
426.568	3139.75
426.678	3308.75
426.787	3221.75
426.897	3089.75
427.006	3225.75
427.116	3277.75
427.225	3178.75
427.335	3288.75
427.444	3263.75
427.554	3324.75
427.663	3225.75
427.773	3279.75
427.882	3502.75
427.992	3206.75
428.101	3340.75
428.21	3345.75
428.32	3419.75
428.429	3331.75
428.539	3762.75
428.648	3379.75
428.757	3437.75
428.867	3491.75
428.976	3654.75
429.085	3549.75
429.195	3530.75
429.304	3512.75
429.413	3589.75
429.523	3725.75
429.632	3666.75
429.741	3627.75
429.85	3576.75
429.96	3699.75
430.069	3602.75
430.178	3687.75
430.287	4082.75
430.397	3774.75
430.506	3700.75
430.615	3688.75
430.724	3842.75
430.833	3847.75
430.943	3847.75
431.052	3875.75
431.161	3920.75
431.27	4029.75
431.379	4039.75
431.488	4266.75
431.597	4219.75
431.706	4277.75
431.816	4201.75
431.925	4130.75
432.034	4092.75
432.143	4299.75
432.252	4142.75
432.361	4297.75
432.47	4100.75
432.579	4123.75
432.688	4115.75
432.797	4168.75
432.906	4120.75
433.015	4281.75
433.124	4604.75
433.233	4283.75
433.342	4329.75
433.451	4272.75
433.56	4347.75
433.669	4242.75
433.778	4320.75
433.886	4483.75
433.995	4374.75
434.104	4684.75
434.213	4691.75
434.322	4603.75
434.431	4842.75
434.54	4950.75
434.649	5233.75
434.757	5152.75
434.866	4918.75
434.975	4925.75
435.084	4760.75
435.193	4546.75
435.301	4773.75
435.41	4682.75
435.519	4909.75
435.628	4257.75
435.737	4092.75
435.845	4135.75
435.954	3988.75
436.063	4091.75
436.171	4058.75
436.28	4086.75
436.389	4291.75
436.498	4073.75
436.606	4153.75
436.715	4299.75
436.823	3987.75
436.932	3892.75
437.041	3882.75
437.149	3903.75
437.258	3747.75
437.367	3712.75
437.475	3794.75
437.584	4047.75
437.692	3667.75
437.801	5511.75
437.91	3787.75
438.018	3602.75
438.127	3639.75
438.235	3737.75
438.344	3621.75
438.452	3730.75
438.561	3612.75
438.669	3658.75
438.778	3543.75
438.886	3649.75
438.995	3566.75
439.103	3559.75
439.212	3771.75
439.32	3672.75
439.428	3604.75
439.537	3746.75
439.645	3885.75
439.754	3729.75
439.862	3693.75
439.97	3790.75
440.079	3788.75
440.187	3688.75
440.295	3997.75
440.404	3797.75
440.512	3826.75
440.62	3959.75
440.729	3935.75
440.837	4010.75
440.945	4829.75
441.054	4184.75
441.162	4170.75
441.27	4430.75
441.378	4439.75
441.487	4436.75
441.595	4774.75
441.703	4500.75
441.811	4330.75
441.92	4151.75
442.028	4166.75
442.136	4122.75
442.244	4116.75
442.352	4179.75
442.461	3964.75
442.569	3964.75
442.677	4082.75
442.785	4190.75
442.893	4042.75
443.001	4086.75
443.109	4071.75
443.217	4025.75
443.325	4086.75
443.434	4809.75
443.542	4420.75
443.65	4292.75
443.758	4462.75
443.866	4328.75
443.974	4763.75
444.082	4662.75
444.19	4822.75
444.298	4806.75
444.406	5033.75
444.514	5212.75
444.622	5244.75
444.73	5120.75
444.838	5055.75
444.946	4974.75
445.054	4680.75
445.161	4563.75
445.269	4369.75
445.377	4443.75
445.485	4365.75
445.593	4190.75
445.701	4387.75
445.809	4199.75
445.917	4182.75
446.025	4006.75
446.132	4201.75
446.24	4268.75
446.348	4131.75
446.456	4002.75
446.564	4044.75
446.671	4007.75
446.779	4034.75
446.887	3990.75
446.995	3939.75
447.102	3909.75
447.21	3973.75
447.318	4058.75
447.426	3908.75
447.533	4282.75
447.641	5339.75
447.749	4018.75
447.856	3922.75
447.964	4011.75
448.072	3997.75
448.179	3858.75
448.287	3960.75
448.395	4073.75
448.502	3828.75
448.61	3942.75
448.718	3952.75
448.825	3957.75
448.933	3922.75
449.04	4052.75
449.148	3978.75
449.256	3959.75
449.363	4123.75
449.471	4062.75
449.578	4121.75
449.686	4014.75
449.793	4254.75
449.901	4053.75
450.008	4093.75
450.116	4317.75
450.223	4242.75
450.331	4313.75
450.438	4426.75
450.546	4410.75
450.653	4531.75
450.76	4565.75
450.868	4527.75
450.975	4698.75
451.083	4476.75
451.19	4626.75
451.297	4495.75
451.405	4597.75
451.512	4617.75
451.619	4767.75
451.727	4809.75
451.834	4602.75
451.941	4661.75
452.049	4605.75
452.156	4696.75
452.263	4669.75
452.371	4723.75
452.478	4803.75
452.585	5006.75
452.692	4686.75
452.8	4833.75
452.907	5046.75
453.014	4962.75
453.121	4827.75
453.229	4927.75
453.336	4942.75
453.443	4983.75
453.55	4909.75
453.657	4922.75
453.765	5092.75
453.872	4960.75
453.979	5013.75
454.086	5077.75
454.193	5132.75
454.3	5027.75
454.407	5277.75
454.514	5245.75
454.621	5093.75
454.729	5039.75
454.836	5150.75
454.943	5303.75
455.05	5239.75
455.157	5285.75
455.264	5234.75
455.371	5305.75
455.478	5259.75
455.585	6817.75
455.692	5607.75
455.799	5592.75
455.906	5352.75
456.013	5386.75
456.12	5477.75
456.227	5412.75
456.334	5604.75
456.44	5556.75
456.547	5456.75
456.654	5461.75
456.761	5630.75
456.868	5766.75
456.975	5774.75
457.082	5701.75
457.189	5666.75
457.296	5649.75
457.402	5836.75
457.509	5600.75
457.616	5821.75
457.723	6170.75
457.83	5935.75
457.936	5901.75
458.043	6509.75
458.15	6209.75
458.257	6342.75
458.363	6391.75
458.47	6579.75
458.577	6715.75
458.684	6779.75
458.79	7101.75
458.897	7127.75
459.004	7361.75
459.11	7305.75
459.217	7298.75
459.324	7571.75
459.43	7825.75
459.537	8075.75
459.644	7843.75
459.75	7962.75
459.857	8561.75
459.964	8318.75
460.07	8369.75
460.177	8598.75
460.283	8485.75
460.39	8811.75
460.496	8641.75
460.603	8785.75
460.71	8631.75
460.816	8566.75
460.923	8583.75
461.029	8413.75
461.136	8571.75
461.242	8553.75
461.349	8502.75
461.455	8484.75
461.562	8990.75
461.668	8719.75
461.774	8697.75
461.881	8929.75
461.987	9040.75
462.094	9388.75
462.2	9290.75
462.307	9443.75
462.413	9324.75
462.519	9873.75
462.626	10423.75
462.732	10617.75
462.838	11352.75
462.945	11761.75
463.051	11559.75
463.157	10922.75
463.264	10684.75
463.37	10310.75
463.476	9883.75
463.583	9800.75
463.689	9845.75
463.795	9829.75
463.901	9996.75
464.008	10275.75
464.114	10021.75
464.22	9950.75
464.326	9911.75
464.433	9458.75
464.539	9446.75
464.645	9254.75
464.751	9269.75
464.857	8829.75
464.963	8436.75
465.07	8210.75
465.176	7730.75
465.282	7557.75
465.388	7550.75
465.494	7008.75
465.6	6956.75
465.706	6828.75
465.812	6772.75
465.918	6827.75
466.024	6638.75
466.131	6591.75
466.237	6284.75
466.343	6266.75
466.449	6139.75
466.555	6041.75
466.661	5918.75
466.767	5992.75
466.873	5981.75
466.979	6117.75
467.085	6097.75
467.191	5942.75
467.296	5881.75
467.402	5916.75
467.508	5949.75
467.614	5917.75
467.72	5633.75
467.826	5583.75
467.932	5572.75
468.038	5418.75
468.144	5458.75
468.25	5416.75
468.355	5256.75
468.461	5461.75
468.567	5249.75
468.673	5337.75
468.779	5283.75
468.885	5331.75
468.99	5350.75
469.096	5329.75
469.202	5509.75
469.308	5543.75
469.413	5516.75
469.519	5571.75
469.625	5610.75
469.731	5606.75
469.836	5645.75
469.942	5865.75
470.048	5651.75
470.153	5667.75
470.259	5706.75
470.365	5806.75
470.47	5769.75
470.576	5653.75
470.682	5469.75
470.787	5390.75
470.893	5338.75
470.999	5385.75
471.104	5334.75
471.21	5054.75
471.315	5008.75
471.421	5032.75
471.527	5249.75
471.632	5001.75
471.738	4906.75
471.843	4777.75
471.949	4919.75
472.054	4758.75
472.16	4656.75
472.265	4804.75
472.371	4626.75
472.476	4640.75
472.582	4833.75
472.687	4605.75
472.793	4492.75
472.898	4566.75
473.003	4539.75
473.109	4436.75
473.214	4402.75
473.32	4442.75
473.425	4539.75
473.53	4486.75
473.636	4431.75
473.741	4318.75
473.847	4386.75
473.952	4476.75
474.057	4566.75
474.163	4529.75
474.268	4422.75
474.373	4574.75
474.478	4393.75
474.584	4309.75
474.689	4569.75
474.794	4386.75
474.9	4765.75
475.005	4545.75
475.11	4566.75
475.215	4370.75
475.321	4540.75
475.426	4726.75
475.531	4631.75
475.636	4589.75
475.741	4571.75
475.846	4755.75
475.952	4848.75
476.057	4740.75
476.162	4694.75
476.267	4780.75
476.372	5015.75
476.477	4626.75
476.582	4819.75
476.687	4708.75
476.793	4820.75
476.898	4800.75
477.003	4928.75
477.108	4927.75
477.213	4913.75
477.318	4802.75
477.423	5194.75
477.528	5190.75
477.633	5223.75
477.738	5397.75
477.843	5269.75
477.948	5376.75
478.053	5429.75
478.158	5410.75
478.263	5448.75
478.368	5436.75
478.473	5845.75
478.578	5653.75
478.682	5595.75
478.787	5849.75
478.892	5688.75
478.997	5789.75
479.102	5746.75
479.207	5666.75
479.312	5890.75
479.417	5890.75
479.521	5907.75
479.626	5938.75
479.731	5968.75
479.836	6135.75
479.941	6218.75
480.045	6248.75
480.15	6354.75
480.255	6385.75
480.36	6354.75
480.465	6389.75
480.569	6600.75
480.674	6229.75
480.779	6107.75
480.883	6043.75
480.988	6154.75
481.093	6086.75
481.197	6076.75
481.302	5964.75
481.407	5980.75
481.511	8124.75
481.616	6137.75
481.721	6071.75
481.825	6149.75
481.93	5981.75
482.035	5977.75
482.139	6167.75
482.244	6149.75
482.348	6188.75
482.453	6157.75
482.557	6283.75
482.662	6239.75
482.767	6265.75
482.871	6365.75
482.976	6406.75
483.08	6498.75
483.185	6652.75
483.289	6547.75
483.394	6557.75
483.498	6775.75
483.603	6647.75
483.707	6718.75
483.811	6890.75
483.916	6988.75
484.02	6846.75
484.125	7170.75
484.229	7267.75
484.333	7357.75
484.438	7096.75
484.542	7276.75
484.647	7244.75
484.751	7389.75
484.855	7474.75
484.96	7526.75
485.064	7570.75
485.168	7646.75
485.273	7628.75
485.377	7513.75
485.481	7926.75
485.585	7819.75
485.69	7858.75
485.794	7998.75
485.898	7877.75
486.002	7900.75
486.107	7921.75
486.211	7864.75
486.315	8089.75
486.419	8023.75
486.524	8114.75
486.628	8133.75
486.732	7937.75
486.836	7946.75
486.94	7940.75
487.044	7951.75
487.148	7954.75
487.253	8004.75
487.357	7955.75
487.461	8233.75
487.565	8003.75
487.669	7870.75
487.773	7851.75
487.877	8091.75
487.981	8024.75
488.085	8044.75
488.189	7981.75
488.293	8167.75
488.397	8530.75
488.501	7926.75
488.605	7854.75
488.709	7953.75
488.813	7920.75
488.917	7821.75
489.021	7993.75
489.125	8179.75
489.229	7938.75
489.333	8174.75
489.437	8134.75
489.541	8021.75
489.645	8092.75
489.749	8036.75
489.853	8174.75
489.956	8029.75
490.06	8038.75
490.164	8034.75
490.268	7947.75
490.372	8025.75
490.476	7950.75
490.579	7847.75
490.683	8761.75
490.787	8015.75
490.891	7959.75
490.995	8042.75
491.098	7987.75
491.202	7801.75
491.306	7993.75
491.41	8046.75
491.513	7875.75
491.617	7910.75
491.721	8163.75
491.824	8275.75
491.928	7916.75
492.032	8235.75
492.136	7859.75
492.239	8031.75
492.343	7980.75
492.446	8559.75
492.55	7952.75
492.654	7777.75
492.757	7942.75
492.861	7939.75
492.965	7975.75
493.068	8167.75
493.172	7922.75
493.275	7962.75
493.379	7973.75
493.482	8137.75
493.586	8074.75
493.689	8287.75
493.793	7927.75
493.896	8189.75
494	8121.75
494.103	8273.75
494.207	8387.75
494.31	8479.75
494.414	8185.75
494.517	8012.75
494.621	7875.75
494.724	7893.75
494.828	7927.75
494.931	7825.75
495.034	7844.75
495.138	8139.75
495.241	7775.75
495.345	8693.75
495.448	7922.75
495.551	7673.75
495.655	7745.75
495.758	7826.75
495.861	7730.75
495.965	7663.75
496.068	7812.75
496.171	7904.75
496.274	7900.75
496.378	7826.75
496.481	7904.75
496.584	7920.75
496.687	7961.75
496.791	7967.75
496.894	8104.75
496.997	8135.75
497.1	8231.75
497.204	8183.75
497.307	8243.75
497.41	8525.75
497.513	8684.75
497.616	8565.75
497.719	8535.75
497.823	8849.75
497.926	8979.75
498.029	9154.75
498.132	9238.75
498.235	9613.75
498.338	9765.75
498.441	10173.75
498.544	10278.75
498.647	10787.75
498.75	11219.75
498.853	11514.75
498.956	11801.75
499.059	12459.75
499.163	12776.75
499.266	13196.75
499.369	13774.75
499.471	14329.75
499.574	14591.75
499.677	14591.75
499.78	14591.75
499.883	14591.75
499.986	14591.75
500.089	14591.75
500.192	14591.75
500.295	14591.75
500.398	14591.75
500.501	14591.75
500.604	14591.75
500.707	14591.75
500.809	14591.75
500.912	14591.75
501.015	14591.75
501.118	14230.75
501.221	13393.75
501.324	12678.75
501.426	12051.75
501.529	11404.75
501.632	11201.75
501.735	10695.75
501.837	10251.75
501.94	9899.75
502.043	9906.75
502.146	9561.75
502.248	9275.75
502.351	9035.75
502.454	8933.75
502.557	8581.75
502.659	8348.75
502.762	8197.75
502.865	7932.75
502.967	7759.75
503.07	7708.75
503.173	7665.75
503.275	7421.75
503.378	7229.75
503.48	7317.75
503.583	7332.75
503.686	7170.75
503.788	7666.75
503.891	7178.75
503.993	7518.75
504.096	7310.75
504.198	7420.75
504.301	7372.75
504.403	7581.75
504.506	7459.75
504.608	6976.75
504.711	6880.75
504.813	6779.75
504.916	6505.75
505.018	6187.75
505.121	6224.75
505.223	6148.75
505.326	6014.75
505.428	6033.75
505.531	5837.75
505.633	5839.75
505.735	5753.75
505.838	5677.75
505.94	5595.75
506.042	5488.75
506.145	5443.75
506.247	5582.75
506.35	5405.75
506.452	5548.75
506.554	5492.75
506.656	5264.75
506.759	5305.75
506.861	5308.75
506.963	5252.75
507.066	5315.75
507.168	5403.75
507.27	5222.75
507.372	5128.75
507.475	5233.75
507.577	5206.75
507.679	5176.75
507.781	5053.75
507.883	5074.75
507.986	4941.75
508.088	4957.75
508.19	4980.75
508.292	4954.75
508.394	4945.75
508.496	4933.75
508.598	4958.75
508.701	4987.75
508.803	4999.75
508.905	4744.75
509.007	4900.75
509.109	4953.75
509.211	4969.75
509.313	4829.75
509.415	4789.75
509.517	4832.75
509.619	4785.75
509.721	4788.75
509.823	4809.75
509.925	5008.75
510.027	4779.75
510.129	4829.75
510.231	4908.75
510.333	4689.75
510.435	4840.75
510.537	4712.75
510.639	4870.75
510.741	4724.75
510.843	4897.75
510.945	4806.75
511.047	4790.75
511.148	4970.75
511.25	4753.75
511.352	4714.75
511.454	4684.75
511.556	4856.75
511.658	4766.75
511.76	4956.75
511.861	4961.75
511.963	4649.75
512.065	4727.75
512.167	4681.75
512.268	5050.75
512.37	4925.75
512.472	4953.75
512.574	4875.75
512.676	4978.75
512.777	4827.75
512.879	4794.75
512.981	4782.75
513.082	4867.75
513.184	4881.75
513.286	5446.75
513.387	4935.75
513.489	5122.75
513.591	4878.75
513.692	4991.75
513.794	5059.75
513.896	4728.75
513.997	4891.75
514.099	4939.75
514.2	5020.75
514.302	5138.75
514.404	5049.75
514.505	5002.75
514.607	5181.75
514.708	5118.75
514.81	5299.75
514.911	5210.75
515.013	5265.75
515.114	5446.75
515.216	5159.75
515.317	5319.75
515.419	5401.75
515.52	5496.75
515.622	5509.75
515.723	5556.75
515.825	5820.75
515.926	5710.75
516.027	5756.75
516.129	5814.75
516.23	5998.75
516.332	6037.75
516.433	6286.75
516.534	6474.75
516.636	6326.75
516.737	6570.75
516.838	7877.75
516.94	6951.75
517.041	7229.75
517.142	7409.75
517.244	7489.75
517.345	7502.75
517.446	7623.75
517.547	7637.75
517.649	7561.75
517.75	7716.75
517.851	7543.75
517.952	7845.75
518.054	7492.75
518.155	7412.75
518.256	7169.75
518.357	7089.75
518.458	6804.75
518.56	6635.75
518.661	6570.75
518.762	6600.75
518.863	6653.75
518.964	6450.75
519.065	6337.75
519.166	6110.75
519.268	6099.75
519.369	6331.75
519.47	5983.75
519.571	5955.75
519.672	5977.75
519.773	5867.75
519.874	5886.75
519.975	5859.75
520.076	5891.75
520.177	5831.75
520.278	5905.75
520.379	5912.75
520.48	5618.75
520.581	5610.75
520.682	5740.75
520.783	5637.75
520.884	5844.75
520.985	5744.75
521.086	5736.75
521.187	5721.75
521.288	5673.75
521.389	5659.75
521.489	5598.75
521.59	5544.75
521.691	5646.75
521.792	5528.75
521.893	5765.75
521.994	5834.75
522.095	5710.75
522.195	5607.75
522.296	5794.75
522.397	5601.75
522.498	5705.75
522.599	5514.75
522.699	5589.75
522.8	5571.75
522.901	5724.75
523.002	5600.75
523.102	5767.75
523.203	5490.75
523.304	5807.75
523.405	5505.75
523.505	5552.75
523.606	5668.75
523.707	5696.75
523.807	5628.75
523.908	5625.75
524.009	5774.75
524.109	5539.75
524.21	5545.75
524.31	5677.75
524.411	5737.75
524.512	5742.75
524.612	5724.75
524.713	5746.75
524.813	5578.75
524.914	5988.75
525.014	11890.75
525.115	5953.75
525.216	5541.75
525.316	5625.75
525.417	5634.75
525.517	5645.75
525.618	5686.75
525.718	5673.75
525.819	5659.75
525.919	5751.75
526.019	5614.75
526.12	5713.75
526.22	5669.75
526.321	5694.75
526.421	5626.75
526.522	5672.75
526.622	5693.75
526.722	5679.75
526.823	5730.75
526.923	5777.75
527.023	5801.75
527.124	5671.75
527.224	5796.75
527.324	5597.75
527.425	5615.75
527.525	5589.75
527.625	5591.75
527.726	5611.75
527.826	5852.75
527.926	5754.75
528.026	5830.75
528.127	5648.75
528.227	5909.75
528.327	5809.75
528.427	5559.75
528.528	5783.75
528.628	5772.75
528.728	5714.75
528.828	5691.75
528.928	5822.75
529.029	5681.75
529.129	5768.75
529.229	5700.75
529.329	5666.75
529.429	5772.75
529.529	5864.75
529.629	5741.75
529.729	5775.75
529.829	5849.75
529.93	5761.75
530.03	5779.75
530.13	5687.75
530.23	5691.75
530.33	5869.75
530.43	5670.75
530.53	5779.75
530.63	5731.75
530.73	5657.75
530.83	5535.75
530.93	5531.75
531.03	5597.75
531.13	5761.75
531.23	5717.75
531.33	5623.75
531.429	5821.75
531.529	5861.75
531.629	5577.75
531.729	5459.75
531.829	5668.75
531.929	5516.75
532.029	5525.75
532.129	5660.75
532.229	5604.75
532.328	5539.75
532.428	5506.75
532.528	5525.75
532.628	5510.75
532.728	5551.75
532.827	5371.75
532.927	5408.75
533.027	5371.75
533.127	5582.75
533.227	5419.75
533.326	5446.75
533.426	5428.75
533.526	5475.75
533.625	5481.75
533.725	5677.75
533.825	5461.75
533.924	5292.75
534.024	5263.75
534.124	5320.75
534.223	5324.75
534.323	5810.75
534.423	5320.75
534.522	5317.75
534.622	5086.75
534.722	5203.75
534.821	5230.75
534.921	5067.75
535.02	4934.75
535.12	5240.75
535.219	5179.75
535.319	5116.75
535.419	5185.75
535.518	5020.75
535.618	4969.75
535.717	5124.75
535.817	4769.75
535.916	4782.75
536.016	5003.75
536.115	4843.75
536.215	4802.75
536.314	4837.75
536.413	4787.75
536.513	4826.75
536.612	4755.75
536.712	4677.75
536.811	4740.75
536.91	4662.75
537.01	4593.75
537.109	4643.75
537.209	4656.75
537.308	4716.75
537.407	4569.75
537.507	4635.75
537.606	4599.75
