Data from 42g_HRC06701__20__507.txt Node

Date: Thu Apr 18 02:42:23 CDT 2024
User: Estudiantes 2
Spectrometer: HR+C0670
Trigger mode: 4
Integration Time (sec): 1.000000E0
Scans to average: 1
Electric dark correction enabled: true
Nonlinearity correction enabled: false
Boxcar width: 0
XAxis mode: Wavelengths
Number of Pixels in Spectrum: 2048
>>>>>Begin Spectral Data<<<<<
407.81	-154.75
407.921	-154.75
408.032	-154.75
408.143	-149.75
408.254	-113.75
408.365	22.25
408.476	307.25
408.587	-1.75
408.699	-16.75
408.81	-15.75
408.921	-48.75
409.032	-32.75
409.143	13.25
409.254	30.25
409.365	105.25
409.476	-49.75
409.587	1.25
409.698	104.25
409.809	95.25
409.92	-36.75
410.031	-3.75
410.142	41.25
410.253	8.25
410.364	31.25
410.475	-44.75
410.585	-8.75
410.696	-8.75
410.807	30.25
410.918	-44.75
411.029	40.25
411.14	58.25
411.251	-27.75
411.362	49.25
411.472	73.25
411.583	16.25
411.694	44.25
411.805	15.25
411.916	-14.75
412.026	22.25
412.137	5.25
412.248	53.25
412.359	-12.75
412.47	-49.75
412.58	16.25
412.691	19.25
412.802	7.25
412.912	40.25
413.023	3.25
413.134	-30.75
413.245	122.25
413.355	41.25
413.466	-27.75
413.577	1.25
413.687	120.25
413.798	-52.75
413.909	72.25
414.019	19.25
414.13	18.25
414.24	-30.75
414.351	89.25
414.462	176.25
414.572	79.25
414.683	64.25
414.793	33.25
414.904	348.25
415.014	30.25
415.125	6.25
415.235	12.25
415.346	129.25
415.456	194.25
415.567	15.25
415.677	45.25
415.788	106.25
415.898	-10.75
416.009	-39.75
416.119	45.25
416.23	38.25
416.34	-29.75
416.45	23.25
416.561	860.25
416.671	174.25
416.782	-58.75
416.892	28.25
417.002	45.25
417.113	55.25
417.223	57.25
417.333	-17.75
417.444	-45.75
417.554	35.25
417.664	73.25
417.775	-82.75
417.885	26.25
417.995	73.25
418.106	147.25
418.216	50.25
418.326	74.25
418.436	3.25
418.547	-18.75
418.657	6.25
418.767	95.25
418.877	-30.75
418.987	-16.75
419.098	51.25
419.208	-6.75
419.318	43.25
419.428	65.25
419.538	-1.75
419.648	16.25
419.759	62.25
419.869	19.25
419.979	-7.75
420.089	47.25
420.199	1.25
420.309	16.25
420.419	37.25
420.529	64.25
420.639	540.25
420.749	82.25
420.859	121.25
420.969	23.25
421.079	297.25
421.189	127.25
421.299	77.25
421.409	-11.75
421.519	112.25
421.629	103.25
421.739	-8.75
421.849	-40.75
421.959	14.25
422.069	56.25
422.179	-21.75
422.289	5.25
422.399	-11.75
422.509	90.25
422.619	3674.25
422.729	407.25
422.838	-36.75
422.948	65.25
423.058	-50.75
423.168	-46.75
423.278	-8.75
423.388	58.25
423.498	14.25
423.607	5.25
423.717	328.25
423.827	331.25
423.937	39.25
424.046	100.25
424.156	54.25
424.266	-18.75
424.376	230.25
424.485	179.25
424.595	-10.75
424.705	-10.75
424.815	42.25
424.924	414.25
425.034	88.25
425.144	-10.75
425.253	1.25
425.363	12.25
425.473	89.25
425.582	-65.75
425.692	-33.75
425.801	-35.75
425.911	156.25
426.021	8.25
426.13	68.25
426.24	243.25
426.349	108.25
426.459	40.25
426.568	14.25
426.678	87.25
426.787	20.25
426.897	-18.75
427.006	4.25
427.116	61.25
427.225	48.25
427.335	73.25
427.444	-23.75
427.554	75.25
427.663	46.25
427.773	-22.75
427.882	53.25
427.992	41.25
428.101	-25.75
428.21	-18.75
428.32	10.25
428.429	-63.75
428.539	257.25
428.648	-29.75
428.757	98.25
428.867	26.25
428.976	152.25
429.085	61.25
429.195	-21.75
429.304	-22.75
429.413	76.25
429.523	16.25
429.632	55.25
429.741	53.25
429.85	-26.75
429.96	33.25
430.069	-18.75
430.178	-28.75
430.287	257.25
430.397	10.25
430.506	50.25
430.615	-24.75
430.724	27.25
430.833	63.25
430.943	7.25
431.052	5.25
431.161	-22.75
431.27	17.25
431.379	-29.75
431.488	98.25
431.597	70.25
431.706	70.25
431.816	-8.75
431.925	26.25
432.034	-31.75
432.143	33.25
432.252	43.25
432.361	78.25
432.47	8.25
432.579	34.25
432.688	4.25
432.797	6.25
432.906	-21.75
433.015	69.25
433.124	384.25
433.233	41.25
433.342	105.25
433.451	1.25
433.56	-5.75
433.669	13.25
433.778	-7.75
433.886	19.25
433.995	14.25
434.104	130.25
434.213	-1.75
434.322	0.25
434.431	113.25
434.54	16.25
434.649	145.25
434.757	73.25
434.866	-16.75
434.975	37.25
435.084	152.25
435.193	88.25
435.301	287.25
435.41	472.25
435.519	500.25
435.628	60.25
435.737	-10.75
435.845	5.25
435.954	-56.75
436.063	3.25
436.171	40.25
436.28	9.25
436.389	97.25
436.498	82.25
436.606	20.25
436.715	169.25
436.823	34.25
436.932	3.25
437.041	-15.75
437.149	49.25
437.258	25.25
437.367	-20.75
437.475	-24.75
437.584	295.25
437.692	17.25
437.801	1566.25
437.91	234.25
438.018	13.25
438.127	-25.75
438.235	79.25
438.344	18.25
438.452	7.25
438.561	-10.75
438.669	39.25
438.778	-46.75
438.886	-3.75
438.995	5.25
439.103	-19.75
439.212	-12.75
439.32	9.25
439.428	-41.75
439.537	-26.75
439.645	86.25
439.754	44.25
439.862	-8.75
439.97	30.25
440.079	25.25
440.187	-62.75
440.295	117.25
440.404	33.25
440.512	-9.75
440.62	39.25
440.729	89.25
440.837	73.25
440.945	705.25
441.054	100.25
441.162	-17.75
441.27	53.25
441.378	4.25
441.487	37.25
441.595	320.25
441.703	91.25
441.811	85.25
441.92	-12.75
442.028	-49.75
442.136	53.25
442.244	44.25
442.352	14.25
442.461	-60.75
442.569	-24.75
442.677	-62.75
442.785	39.25
442.893	16.25
443.001	-65.75
443.109	-62.75
443.217	13.25
443.325	-61.75
443.434	478.25
443.542	237.25
443.65	-15.75
443.758	120.25
443.866	9.25
443.974	339.25
444.082	46.25
444.19	-14.75
444.298	41.25
444.406	40.25
444.514	-30.75
444.622	66.25
444.73	74.25
444.838	-16.75
444.946	104.25
445.054	-0.75
445.161	-46.75
445.269	-17.75
445.377	82.25
445.485	15.25
445.593	41.25
445.701	276.25
445.809	109.25
445.917	34.25
446.025	-9.75
446.132	90.25
446.24	72.25
446.348	58.25
446.456	-31.75
446.564	-27.75
446.671	40.25
446.779	24.25
446.887	-38.75
446.995	17.25
447.102	105.25
447.21	53.25
447.318	38.25
447.426	1.25
447.533	254.25
447.641	1249.25
447.749	220.25
447.856	47.25
447.964	29.25
448.072	132.25
448.179	39.25
448.287	55.25
448.395	39.25
448.502	40.25
448.61	24.25
448.718	-6.75
448.825	119.25
448.933	6.25
449.04	-1.75
449.148	13.25
449.256	12.25
449.363	13.25
449.471	32.25
449.578	106.25
449.686	-31.75
449.793	98.25
449.901	61.25
450.008	4.25
450.116	25.25
450.223	11.25
450.331	28.25
450.438	-26.75
450.546	35.25
450.653	44.25
450.76	29.25
450.868	11.25
450.975	235.25
451.083	6.25
451.19	49.25
451.297	71.25
451.405	32.25
451.512	-5.75
451.619	159.25
451.727	146.25
451.834	-8.75
451.941	13.25
452.049	29.25
452.156	-14.75
452.263	49.25
452.371	37.25
452.478	44.25
452.585	133.25
452.692	24.25
452.8	35.25
452.907	182.25
453.014	83.25
453.121	4.25
453.229	65.25
453.336	132.25
453.443	117.25
453.55	-35.75
453.657	47.25
453.765	110.25
453.872	35.25
453.979	111.25
454.086	44.25
454.193	25.25
454.3	-7.75
454.407	193.25
454.514	142.25
454.621	11.25
454.729	43.25
454.836	54.25
454.943	7.25
455.05	103.25
455.157	173.25
455.264	39.25
455.371	52.25
455.478	77.25
455.585	1289.25
455.692	179.25
455.799	205.25
455.906	-10.75
456.013	-27.75
456.12	-28.75
456.227	32.25
456.334	32.25
456.44	92.25
456.547	80.25
456.654	-45.75
456.761	5.25
456.868	130.25
456.975	69.25
457.082	-7.75
457.189	8.25
457.296	28.25
457.402	-28.75
457.509	-2.75
457.616	58.25
457.723	158.25
457.83	44.25
457.936	18.25
458.043	281.25
458.15	16.25
458.257	124.25
458.363	36.25
458.47	-3.75
458.577	71.25
458.684	-51.75
458.79	7.25
458.897	58.25
459.004	69.25
459.11	-20.75
459.217	27.25
459.324	128.25
459.43	133.25
459.537	281.25
459.644	104.25
459.75	-32.75
459.857	368.25
459.964	95.25
460.07	91.25
460.177	19.25
460.283	135.25
460.39	237.25
460.496	53.25
460.603	69.25
460.71	116.25
460.816	6.25
460.923	28.25
461.029	105.25
461.136	45.25
461.242	34.25
461.349	98.25
461.455	25.25
461.562	352.25
461.668	147.25
461.774	89.25
461.881	118.25
461.987	74.25
462.094	89.25
462.2	48.25
462.307	129.25
462.413	99.25
462.519	4.25
462.626	103.25
462.732	109.25
462.838	45.25
462.945	89.25
463.051	47.25
463.157	31.25
463.264	7.25
463.37	101.25
463.476	110.25
463.583	90.25
463.689	-3.75
463.795	70.25
463.901	98.25
464.008	156.25
464.114	47.25
464.22	-3.75
464.326	43.25
464.433	0.25
464.539	85.25
464.645	38.25
464.751	238.25
464.857	122.25
464.963	-20.75
465.07	102.25
465.176	135.25
465.282	43.25
465.388	184.25
465.494	39.25
465.6	62.25
465.706	16.25
465.812	-12.75
465.918	108.25
466.024	0.25
466.131	119.25
466.237	41.25
466.343	-41.75
466.449	-3.75
466.555	9.25
466.661	-3.75
466.767	-8.75
466.873	65.25
466.979	220.25
467.085	54.25
467.191	34.25
467.296	-17.75
467.402	-22.75
467.508	70.25
467.614	228.25
467.72	-19.75
467.826	-1.75
467.932	78.25
468.038	-8.75
468.144	23.25
468.25	37.25
468.355	10.25
468.461	20.25
468.567	-14.75
468.673	81.25
468.779	71.25
468.885	24.25
468.99	14.25
469.096	-26.75
469.202	95.25
469.308	64.25
469.413	89.25
469.519	1.25
469.625	10.25
469.731	24.25
469.836	-12.75
469.942	184.25
470.048	89.25
470.153	36.25
470.259	34.25
470.365	195.25
470.47	63.25
470.576	66.25
470.682	63.25
470.787	22.25
470.893	-34.75
470.999	71.25
471.104	125.25
471.21	19.25
471.315	-78.75
471.421	27.25
471.527	201.25
471.632	115.25
471.738	132.25
471.843	-26.75
471.949	70.25
472.054	86.25
472.16	27.25
472.265	33.25
472.371	21.25
472.476	82.25
472.582	97.25
472.687	28.25
472.793	36.25
472.898	22.25
473.003	16.25
473.109	43.25
473.214	-46.75
473.32	-42.75
473.425	124.25
473.53	12.25
473.636	-26.75
473.741	-7.75
473.847	29.25
473.952	15.25
474.057	85.25
474.163	134.25
474.268	-21.75
474.373	58.25
474.478	-25.75
474.584	-38.75
474.689	24.25
474.794	63.25
474.9	305.25
475.005	-5.75
475.11	178.25
475.215	29.25
475.321	18.25
475.426	197.25
475.531	224.25
475.636	-15.75
475.741	-21.75
475.846	189.25
475.952	230.25
476.057	111.25
476.162	152.25
476.267	236.25
476.372	289.25
476.477	30.25
476.582	154.25
476.687	6.25
476.793	47.25
476.898	72.25
477.003	37.25
477.108	18.25
477.213	17.25
477.318	-38.75
477.423	53.25
477.528	154.25
477.633	127.25
477.738	30.25
477.843	-24.75
477.948	56.25
478.053	-28.75
478.158	-17.75
478.263	81.25
478.368	8.25
478.473	83.25
478.578	96.25
478.682	-66.75
478.787	35.25
478.892	23.25
478.997	121.25
479.102	22.25
479.207	-7.75
479.312	161.25
479.417	54.25
479.521	16.25
479.626	161.25
479.731	65.25
479.836	-10.75
479.941	186.25
480.045	100.25
480.15	82.25
480.255	30.25
480.36	-36.75
480.465	32.25
480.569	211.25
480.674	86.25
480.779	-48.75
480.883	-20.75
480.988	109.25
481.093	14.25
481.197	7.25
481.302	97.25
481.407	77.25
481.511	2081.25
481.616	280.25
481.721	72.25
481.825	214.25
481.93	28.25
482.035	35.25
482.139	73.25
482.244	81.25
482.348	99.25
482.453	31.25
482.557	63.25
482.662	104.25
482.767	-24.75
482.871	-38.75
482.976	24.25
483.08	70.25
483.185	197.25
483.289	-2.75
483.394	73.25
483.498	76.25
483.603	-10.75
483.707	71.25
483.811	42.25
483.916	101.25
484.02	48.25
484.125	110.25
484.229	61.25
484.333	126.25
484.438	34.25
484.542	-10.75
484.647	-55.75
484.751	25.25
484.855	-21.75
484.96	-7.75
485.064	85.25
485.168	14.25
485.273	-29.75
485.377	44.25
485.481	209.25
485.585	20.25
485.69	-26.75
485.794	100.25
485.898	44.25
486.002	18.25
486.107	61.25
486.211	23.25
486.315	38.25
486.419	133.25
486.524	11.25
486.628	-26.75
486.732	19.25
486.836	44.25
486.94	77.25
487.044	45.25
487.148	37.25
487.253	-15.75
487.357	35.25
487.461	265.25
487.565	46.25
487.669	28.25
487.773	84.25
487.877	109.25
487.981	87.25
488.085	122.25
488.189	54.25
488.293	152.25
488.397	550.25
488.501	146.25
488.605	23.25
488.709	62.25
488.813	80.25
488.917	-32.75
489.021	56.25
489.125	386.25
489.229	65.25
489.333	156.25
489.437	132.25
489.541	78.25
489.645	0.25
489.749	30.25
489.853	109.25
489.956	-11.75
490.06	78.25
490.164	123.25
490.268	20.25
490.372	51.25
490.476	51.25
490.579	38.25
490.683	681.25
490.787	232.25
490.891	56.25
490.995	34.25
491.098	65.25
491.202	83.25
491.306	63.25
491.41	95.25
491.513	57.25
491.617	31.25
491.721	219.25
491.824	336.25
491.928	84.25
492.032	281.25
492.136	104.25
492.239	18.25
492.343	49.25
492.446	431.25
492.55	166.25
492.654	-12.75
492.757	-42.75
492.861	171.25
492.965	49.25
493.068	71.25
493.172	95.25
493.275	14.25
493.379	-15.75
493.482	168.25
493.586	207.25
493.689	251.25
493.793	38.25
493.896	157.25
494	80.25
494.103	143.25
494.207	440.25
494.31	449.25
494.414	119.25
494.517	109.25
494.621	-11.75
494.724	81.25
494.828	62.25
494.931	50.25
495.034	19.25
495.138	197.25
495.241	53.25
495.345	909.25
495.448	250.25
495.551	115.25
495.655	41.25
495.758	32.25
495.861	43.25
495.965	21.25
496.068	49.25
496.171	121.25
496.274	54.25
496.378	40.25
496.481	106.25
496.584	114.25
496.687	77.25
496.791	54.25
496.894	152.25
496.997	31.25
497.1	53.25
497.204	84.25
497.307	-13.75
497.41	210.25
497.513	266.25
497.616	82.25
497.719	21.25
497.823	49.25
497.926	44.25
498.029	28.25
498.132	57.25
498.235	102.25
498.338	87.25
498.441	160.25
498.544	81.25
498.647	49.25
498.75	170.25
498.853	213.25
498.956	103.25
499.059	212.25
499.163	44.25
499.266	108.25
499.369	80.25
499.471	69.25
499.574	200.25
499.677	81.25
499.78	57.25
499.883	105.25
499.986	118.25
500.089	21.25
500.192	100.25
500.295	108.25
500.398	35.25
500.501	106.25
500.604	97.25
500.707	11.25
500.809	65.25
500.912	196.25
501.015	171.25
501.118	118.25
501.221	211.25
501.324	110.25
501.426	96.25
501.529	75.25
501.632	148.25
501.735	21.25
501.837	27.25
501.94	82.25
502.043	22.25
502.146	109.25
502.248	120.25
502.351	41.25
502.454	32.25
502.557	39.25
502.659	114.25
502.762	2.25
502.865	8.25
502.967	51.25
503.07	55.25
503.173	79.25
503.275	50.25
503.378	58.25
503.48	0.25
503.583	158.25
503.686	93.25
503.788	317.25
503.891	141.25
503.993	282.25
504.096	49.25
504.198	65.25
504.301	29.25
504.403	37.25
504.506	25.25
504.608	83.25
504.711	48.25
504.813	94.25
504.916	175.25
505.018	62.25
505.121	43.25
505.223	129.25
505.326	84.25
505.428	127.25
505.531	80.25
505.633	155.25
505.735	22.25
505.838	15.25
505.94	121.25
506.042	-14.75
506.145	-30.75
506.247	157.25
506.35	25.25
506.452	107.25
506.554	129.25
506.656	102.25
506.759	6.25
506.861	94.25
506.963	100.25
507.066	91.25
507.168	152.25
507.27	77.25
507.372	-10.75
507.475	6.25
507.577	110.25
507.679	-2.75
507.781	-18.75
507.883	57.25
507.986	32.25
508.088	54.25
508.19	70.25
508.292	113.25
508.394	29.25
508.496	-19.75
508.598	67.25
508.701	29.25
508.803	52.25
508.905	30.25
509.007	53.25
509.109	99.25
509.211	115.25
509.313	56.25
509.415	-0.75
509.517	59.25
509.619	58.25
509.721	80.25
509.823	-1.75
509.925	242.25
510.027	18.25
510.129	66.25
510.231	124.25
510.333	31.25
510.435	-16.75
510.537	66.25
510.639	156.25
510.741	25.25
510.843	127.25
510.945	95.25
511.047	113.25
511.148	84.25
511.25	65.25
511.352	56.25
511.454	-39.75
511.556	110.25
511.658	-14.75
511.76	86.25
511.861	181.25
511.963	53.25
512.065	19.25
512.167	25.25
512.268	256.25
512.37	125.25
512.472	9.25
512.574	124.25
512.676	143.25
512.777	9.25
512.879	29.25
512.981	0.25
513.082	3.25
513.184	47.25
513.286	533.25
513.387	124.25
513.489	156.25
513.591	167.25
513.692	81.25
513.794	80.25
513.896	18.25
513.997	-17.75
514.099	-14.75
514.2	88.25
514.302	99.25
514.404	-15.75
514.505	-3.75
514.607	121.25
514.708	0.25
514.81	79.25
514.911	140.25
515.013	112.25
515.114	108.25
515.216	60.25
515.317	49.25
515.419	35.25
515.52	102.25
515.622	78.25
515.723	31.25
515.825	176.25
515.926	104.25
516.027	25.25
516.129	4.25
516.23	76.25
516.332	61.25
516.433	21.25
516.534	215.25
516.636	31.25
516.737	5.25
516.838	1025.25
516.94	212.25
517.041	47.25
517.142	161.25
517.244	181.25
517.345	44.25
517.446	88.25
517.547	150.25
517.649	-8.75
517.75	73.25
517.851	90.25
517.952	318.25
518.054	88.25
518.155	236.25
518.256	108.25
518.357	194.25
518.458	49.25
518.56	48.25
518.661	61.25
518.762	76.25
518.863	192.25
518.964	136.25
519.065	35.25
519.166	76.25
519.268	1.25
519.369	298.25
519.47	102.25
519.571	89.25
519.672	-16.75
519.773	46.25
519.874	125.25
519.975	103.25
520.076	85.25
520.177	180.25
520.278	55.25
520.379	73.25
520.48	29.25
520.581	28.25
520.682	8.25
520.783	29.25
520.884	140.25
520.985	79.25
521.086	78.25
521.187	174.25
521.288	73.25
521.389	126.25
521.489	92.25
521.59	-8.75
521.691	71.25
521.792	30.25
521.893	180.25
521.994	190.25
522.095	119.25
522.195	208.25
522.296	189.25
522.397	170.25
522.498	130.25
522.599	14.25
522.699	82.25
522.8	109.25
522.901	139.25
523.002	68.25
523.102	313.25
523.203	102.25
523.304	244.25
523.405	72.25
523.505	108.25
523.606	122.25
523.707	112.25
523.807	148.25
523.908	60.25
524.009	226.25
524.109	162.25
524.21	51.25
524.31	173.25
524.411	255.25
524.512	228.25
524.612	144.25
524.713	279.25
524.813	129.25
524.914	342.25
525.014	6244.25
525.115	697.25
525.216	63.25
525.316	100.25
525.417	146.25
525.517	67.25
525.618	54.25
525.718	54.25
525.819	47.25
525.919	111.25
526.019	55.25
526.12	179.25
526.22	7.25
526.321	66.25
526.421	48.25
526.522	52.25
526.622	-8.75
526.722	49.25
526.823	89.25
526.923	94.25
527.023	243.25
527.124	95.25
527.224	136.25
527.324	32.25
527.425	132.25
527.525	-23.75
527.625	47.25
527.726	92.25
527.826	130.25
527.926	79.25
528.026	87.25
528.127	-9.75
528.227	49.25
528.327	185.25
528.427	88.25
528.528	85.25
528.628	112.25
528.728	105.25
528.828	116.25
528.928	192.25
529.029	106.25
529.129	108.25
529.229	95.25
529.329	152.25
529.429	191.25
529.529	174.25
529.629	178.25
529.729	91.25
529.829	266.25
529.93	98.25
530.03	213.25
530.13	101.25
530.23	111.25
530.33	262.25
530.43	79.25
530.53	139.25
530.63	169.25
530.73	21.25
530.83	12.25
530.93	63.25
531.03	54.25
531.13	143.25
531.23	13.25
531.33	165.25
531.429	162.25
531.529	311.25
531.629	175.25
531.729	32.25
531.829	17.25
531.929	82.25
532.029	104.25
532.129	61.25
532.229	121.25
532.328	78.25
532.428	47.25
532.528	36.25
532.628	47.25
532.728	75.25
532.827	17.25
532.927	178.25
533.027	46.25
533.127	177.25
533.227	164.25
533.326	116.25
533.426	30.25
533.526	221.25
533.625	283.25
533.725	389.25
533.825	208.25
533.924	74.25
534.024	10.25
534.124	16.25
534.223	166.25
534.323	480.25
534.423	137.25
534.522	139.25
534.622	51.25
534.722	51.25
534.821	119.25
534.921	79.25
535.02	-1.75
535.12	148.25
535.219	266.25
535.319	149.25
535.419	125.25
535.518	101.25
535.618	145.25
535.717	197.25
535.817	70.25
535.916	1.25
536.016	139.25
536.115	92.25
536.215	73.25
536.314	7.25
536.413	-11.75
536.513	70.25
536.612	32.25
536.712	1.25
536.811	124.25
536.91	9.25
537.01	23.25
537.109	138.25
537.209	95.25
537.308	-16.75
537.407	55.25
537.507	83.25
537.606	48.25
537.705	135.25
537.805	119.25
537.904	-11.75
538.003	86.25
538.102	203.25
538.202	64.25
538.301	161.25
538.4	166.25
538.499	116.25
538.599	99.25
538.698	312.25
538.797	111.25
538.896	165.25
538.995	124.25
539.095	120.25
539.194	291.25
539.293	69.25
539.392	106.25
539.491	55.25
539.59	88.25
539.689	241.25
539.789	228.25
539.888	1.25
539.987	-3.75
540.086	112.25
540.185	94.25
540.284	126.25
540.383	162.25
540.482	31.25
540.581	88.25
540.68	117.25
540.779	108.25
540.878	126.25
540.977	176.25
541.076	130.25
541.175	151.25
541.274	387.25
541.373	233.25
541.472	134.25
541.571	54.25
541.67	1458.25
541.769	297.25
541.868	130.25
541.966	222.25
542.065	132.25
542.164	106.25
542.263	132.25
542.362	115.25
542.461	181.25
542.56	215.25
542.658	194.25
542.757	75.25
542.856	68.25
542.955	111.25
543.054	37.25
543.152	209.25
543.251	125.25
543.35	259.25
543.449	154.25
543.547	157.25
543.646	110.25
543.745	122.25
543.843	175.25
543.942	181.25
544.041	64.25
544.14	141.25
544.238	154.25
544.337	309.25
544.436	162.25
544.534	313.25
544.633	181.25
544.731	129.25
544.83	179.25
544.929	140.25
545.027	99.25
545.126	55.25
545.224	221.25
545.323	95.25
545.421	151.25
545.52	153.25
545.619	115.25
545.717	117.25
545.816	223.25
545.914	221.25
546.013	392.25
546.111	334.25
546.209	160.25
546.308	88.25
546.406	104.25
546.505	345.25
546.603	127.25
546.702	114.25
546.8	157.25
546.899	98.25
546.997	189.25
547.095	201.25
547.194	160.25
547.292	160.25
547.39	261.25
547.489	166.25
547.587	410.25
547.685	134.25
547.784	389.25
547.882	221.25
547.98	106.25
548.079	253.25
548.177	99.25
548.275	65.25
548.373	269.25
548.472	145.25
548.57	132.25
548.668	232.25
548.766	132.25
548.864	268.25
548.963	133.25
549.061	337.25
549.159	103.25
549.257	178.25
549.355	158.25
549.454	88.25
549.552	171.25
549.65	151.25
549.748	88.25
549.846	89.25
549.944	97.25
550.042	125.25
550.14	103.25
550.238	144.25
550.336	89.25
550.434	46.25
550.532	71.25
550.631	241.25
550.729	145.25
550.827	191.25
550.925	151.25
551.023	161.25
551.121	37.25
551.218	97.25
