Data from 42g_HRC06701__29__516.txt Node

Date: Thu Apr 18 02:42:32 CDT 2024
User: Estudiantes 2
Spectrometer: HR+C0670
Trigger mode: 4
Integration Time (sec): 1.000000E0
Scans to average: 1
Electric dark correction enabled: true
Nonlinearity correction enabled: false
Boxcar width: 0
XAxis mode: Wavelengths
Number of Pixels in Spectrum: 2048
>>>>>Begin Spectral Data<<<<<
407.81	-127.5
407.921	-127.5
408.032	-127.5
408.143	-123.5
408.254	-174.5
408.365	34.5
408.476	340.5
408.587	4.5
408.699	-18.5
408.81	9.5
408.921	-95.5
409.032	-63.5
409.143	67.5
409.254	35.5
409.365	75.5
409.476	-51.5
409.587	16.5
409.698	70.5
409.809	99.5
409.92	-5.5
410.031	-56.5
410.142	64.5
410.253	66.5
410.364	23.5
410.475	765.5
410.585	3663.5
410.696	3948.5
410.807	3832.5
410.918	3825.5
411.029	4041.5
411.14	3952.5
411.251	3937.5
411.362	4006.5
411.472	4063.5
411.583	4021.5
411.694	4175.5
411.805	4043.5
411.916	4144.5
412.026	4194.5
412.137	4105.5
412.248	3959.5
412.359	4172.5
412.47	3905.5
412.58	3829.5
412.691	3990.5
412.802	3959.5
412.912	3891.5
413.023	4001.5
413.134	3902.5
413.245	3983.5
413.355	3921.5
413.466	3964.5
413.577	3968.5
413.687	4058.5
413.798	3798.5
413.909	4045.5
414.019	3998.5
414.13	4008.5
414.24	4014.5
414.351	4056.5
414.462	4274.5
414.572	4090.5
414.683	4127.5
414.793	4053.5
414.904	4416.5
415.014	3992.5
415.125	3934.5
415.235	4055.5
415.346	4189.5
415.456	4119.5
415.567	3987.5
415.677	3942.5
415.788	4019.5
415.898	3911.5
416.009	3973.5
416.119	4125.5
416.23	4003.5
416.34	3915.5
416.45	4029.5
416.561	4837.5
416.671	4118.5
416.782	3995.5
416.892	4111.5
417.002	4144.5
417.113	4257.5
417.223	4054.5
417.333	4117.5
417.444	4231.5
417.554	4308.5
417.664	4191.5
417.775	4066.5
417.885	4359.5
417.995	4293.5
418.106	4611.5
418.216	4423.5
418.326	4605.5
418.436	4565.5
418.547	4675.5
418.657	4495.5
418.767	4768.5
418.877	4709.5
418.987	4725.5
419.098	4708.5
419.208	4778.5
419.318	4788.5
419.428	4724.5
419.538	4500.5
419.648	4693.5
419.759	4572.5
419.869	4639.5
419.979	4763.5
420.089	4621.5
420.199	4617.5
420.309	4701.5
420.419	4683.5
420.529	4737.5
420.639	5222.5
420.749	4821.5
420.859	4794.5
420.969	4867.5
421.079	5148.5
421.189	4852.5
421.299	4812.5
421.409	4760.5
421.519	4843.5
421.629	5068.5
421.739	4964.5
421.849	4940.5
421.959	4973.5
422.069	5038.5
422.179	4973.5
422.289	5048.5
422.399	5239.5
422.509	5401.5
422.619	9176.5
422.729	5581.5
422.838	5385.5
422.948	5336.5
423.058	5326.5
423.168	5577.5
423.278	5561.5
423.388	5534.5
423.498	5815.5
423.607	5652.5
423.717	6033.5
423.827	5994.5
423.937	5822.5
424.046	5982.5
424.156	5913.5
424.266	5927.5
424.376	6134.5
424.485	6079.5
424.595	5908.5
424.705	5882.5
424.815	5949.5
424.924	6554.5
425.034	6004.5
425.144	5992.5
425.253	5985.5
425.363	6241.5
425.473	6088.5
425.582	5904.5
425.692	6105.5
425.801	5859.5
425.911	6160.5
426.021	6168.5
426.13	6283.5
426.24	6337.5
426.349	6275.5
426.459	6271.5
426.568	6172.5
426.678	6451.5
426.787	6402.5
426.897	6263.5
427.006	6389.5
427.116	6357.5
427.225	6309.5
427.335	6534.5
427.444	6383.5
427.554	6484.5
427.663	6520.5
427.773	6542.5
427.882	6601.5
427.992	6515.5
428.101	6661.5
428.21	6616.5
428.32	6801.5
428.429	6649.5
428.539	7039.5
428.648	6740.5
428.757	6829.5
428.867	6899.5
428.976	7122.5
429.085	7040.5
429.195	7002.5
429.304	6965.5
429.413	7062.5
429.523	7066.5
429.632	7084.5
429.741	7173.5
429.85	7014.5
429.96	7276.5
430.069	7149.5
430.178	7169.5
430.287	7544.5
430.397	7343.5
430.506	7362.5
430.615	7442.5
430.724	7609.5
430.833	7497.5
430.943	7485.5
431.052	7560.5
431.161	7560.5
431.27	7797.5
431.379	7830.5
431.488	8182.5
431.597	8026.5
431.706	8185.5
431.816	8257.5
431.925	8017.5
432.034	7916.5
432.143	8149.5
432.252	7902.5
432.361	8021.5
432.47	8090.5
432.579	8067.5
432.688	7908.5
432.797	8122.5
432.906	7885.5
433.015	8127.5
433.124	8451.5
433.233	8258.5
433.342	8128.5
433.451	8229.5
433.56	8158.5
433.669	8314.5
433.778	8039.5
433.886	8476.5
433.995	8281.5
434.104	8678.5
434.213	8653.5
434.322	8806.5
434.431	9055.5
434.54	9260.5
434.649	9438.5
434.757	9325.5
434.866	9185.5
434.975	9141.5
435.084	8918.5
435.193	8876.5
435.301	8739.5
435.41	8635.5
435.519	8816.5
435.628	8108.5
435.737	8048.5
435.845	7848.5
435.954	7792.5
436.063	7806.5
436.171	7830.5
436.28	7769.5
436.389	8042.5
436.498	7754.5
436.606	7760.5
436.715	8055.5
436.823	7654.5
436.932	7532.5
437.041	7478.5
437.149	7374.5
437.258	7257.5
437.367	7114.5
437.475	7275.5
437.584	7525.5
437.692	7156.5
437.801	8897.5
437.91	7245.5
438.018	7114.5
438.127	7121.5
438.235	7213.5
438.344	7141.5
438.452	7119.5
438.561	7034.5
438.669	7072.5
438.778	6946.5
438.886	6960.5
438.995	6847.5
439.103	7059.5
439.212	7110.5
439.32	7173.5
439.428	7065.5
439.537	7087.5
439.645	7290.5
439.754	7287.5
439.862	7116.5
439.97	7176.5
440.079	7309.5
440.187	7058.5
440.295	7432.5
440.404	7379.5
440.512	7308.5
440.62	7640.5
440.729	7633.5
440.837	7760.5
440.945	8559.5
441.054	8038.5
441.162	7904.5
441.27	8363.5
441.378	8318.5
441.487	8192.5
441.595	8686.5
441.703	8544.5
441.811	8105.5
441.92	7991.5
442.028	7876.5
442.136	8058.5
442.244	7847.5
442.352	7909.5
442.461	7684.5
442.569	7680.5
442.677	7837.5
442.785	7948.5
442.893	7762.5
443.001	7789.5
443.109	7753.5
443.217	7847.5
443.325	7993.5
443.434	8645.5
443.542	8290.5
443.65	8046.5
443.758	8434.5
443.866	8304.5
443.974	8869.5
444.082	8628.5
444.19	8912.5
444.298	9132.5
444.406	9367.5
444.514	9740.5
444.622	9665.5
444.73	9543.5
444.838	9248.5
444.946	9260.5
445.054	8744.5
445.161	8725.5
445.269	8510.5
445.377	8456.5
445.485	8246.5
445.593	8237.5
445.701	8292.5
445.809	8172.5
445.917	8080.5
446.025	7814.5
446.132	8125.5
446.24	8068.5
446.348	7903.5
446.456	7798.5
446.564	7783.5
446.671	7933.5
446.779	7716.5
446.887	7801.5
446.995	7655.5
447.102	7744.5
447.21	7702.5
447.318	7578.5
447.426	7510.5
447.533	7862.5
447.641	9055.5
447.749	7639.5
447.856	7415.5
447.964	7692.5
448.072	7766.5
448.179	7470.5
448.287	7576.5
448.395	7789.5
448.502	7489.5
448.61	7648.5
448.718	7710.5
448.825	7648.5
448.933	7632.5
449.04	7679.5
449.148	7841.5
449.256	7840.5
449.363	7854.5
449.471	7812.5
449.578	7982.5
449.686	7821.5
449.793	8247.5
449.901	7875.5
450.008	8022.5
450.116	8222.5
450.223	8139.5
450.331	8401.5
450.438	8528.5
450.546	8487.5
450.653	8585.5
450.76	8848.5
450.868	8811.5
450.975	9152.5
451.083	8767.5
451.19	8939.5
451.297	8834.5
451.405	8964.5
451.512	9018.5
451.619	9138.5
451.727	8972.5
451.834	8947.5
451.941	9041.5
452.049	8969.5
452.156	9108.5
452.263	9173.5
452.371	9337.5
452.478	9189.5
452.585	9308.5
452.692	9038.5
452.8	9298.5
452.907	9582.5
453.014	9365.5
453.121	9395.5
453.229	9428.5
453.336	9480.5
453.443	9568.5
453.55	9576.5
453.657	9403.5
453.765	9650.5
453.872	9581.5
453.979	9842.5
454.086	9738.5
454.193	9716.5
454.3	9590.5
454.407	9811.5
454.514	9944.5
454.621	9720.5
454.729	9836.5
454.836	9915.5
454.943	9885.5
455.05	9939.5
455.157	10066.5
455.264	9926.5
455.371	10067.5
455.478	10097.5
455.585	11722.5
455.692	10295.5
455.799	10402.5
455.906	10246.5
456.013	10240.5
456.12	10416.5
456.227	10410.5
456.334	10549.5
456.44	10667.5
456.547	10533.5
456.654	10421.5
456.761	10695.5
456.868	10728.5
456.975	10789.5
457.082	10707.5
457.189	10722.5
457.296	10848.5
457.402	10967.5
457.509	10957.5
457.616	11185.5
457.723	11495.5
457.83	11328.5
457.936	11483.5
458.043	11860.5
458.15	11615.5
458.257	12026.5
458.363	12073.5
458.47	12294.5
458.577	12588.5
458.684	12751.5
458.79	13194.5
458.897	13219.5
459.004	13382.5
459.11	13369.5
459.217	13649.5
459.324	13867.5
459.43	14174.5
459.537	14586.5
459.644	14512.5
459.75	14586.5
459.857	14586.5
459.964	14586.5
460.07	14586.5
460.177	14586.5
460.283	14586.5
460.39	14586.5
460.496	14586.5
460.603	14586.5
460.71	14586.5
460.816	14586.5
460.923	14586.5
461.029	14586.5
461.136	14586.5
461.242	14586.5
461.349	14586.5
461.455	14586.5
461.562	14586.5
461.668	14586.5
461.774	14586.5
461.881	14586.5
461.987	14586.5
462.094	14586.5
462.2	14586.5
462.307	14586.5
462.413	14586.5
462.519	14586.5
462.626	14586.5
462.732	14586.5
462.838	14586.5
462.945	14586.5
463.051	14586.5
463.157	14586.5
463.264	14586.5
463.37	14586.5
463.476	14586.5
463.583	14586.5
463.689	14586.5
463.795	14586.5
463.901	14586.5
464.008	14586.5
464.114	14586.5
464.22	14586.5
464.326	14586.5
464.433	14586.5
464.539	14586.5
464.645	14586.5
464.751	14586.5
464.857	14586.5
464.963	14586.5
465.07	14586.5
465.176	14067.5
465.282	13740.5
465.388	13533.5
465.494	12973.5
465.6	12698.5
465.706	12582.5
465.812	12428.5
465.918	12413.5
466.024	12112.5
466.131	12057.5
466.237	11606.5
466.343	11405.5
466.449	11241.5
466.555	11132.5
466.661	10960.5
466.767	10941.5
466.873	10807.5
466.979	10979.5
467.085	10873.5
467.191	10880.5
467.296	10767.5
467.402	10709.5
467.508	10561.5
467.614	10768.5
467.72	10233.5
467.826	10226.5
467.932	10055.5
468.038	9864.5
468.144	9949.5
468.25	9815.5
468.355	9863.5
468.461	9826.5
468.567	9698.5
468.673	9752.5
468.779	9823.5
468.885	9657.5
468.99	9505.5
469.096	9774.5
469.202	9862.5
469.308	9810.5
469.413	10022.5
469.519	10101.5
469.625	10005.5
469.731	10048.5
469.836	10106.5
469.942	10445.5
470.048	10335.5
470.153	10136.5
470.259	10300.5
470.365	10205.5
470.47	10193.5
470.576	10046.5
470.682	9901.5
470.787	9888.5
470.893	9609.5
470.999	9610.5
471.104	9524.5
471.21	9342.5
471.315	9123.5
471.421	9026.5
471.527	9289.5
471.632	9016.5
471.738	8842.5
471.843	8727.5
471.949	8845.5
472.054	8685.5
472.16	8491.5
472.265	8493.5
472.371	8456.5
472.476	8362.5
472.582	8389.5
472.687	8257.5
472.793	8094.5
472.898	8161.5
473.003	8175.5
473.109	7983.5
473.214	8070.5
473.32	8087.5
473.425	8020.5
473.53	7946.5
473.636	7915.5
473.741	7951.5
473.847	7860.5
473.952	8014.5
474.057	7863.5
474.163	8012.5
474.268	7990.5
474.373	8009.5
474.478	7946.5
474.584	7799.5
474.689	7898.5
474.794	7992.5
474.9	8258.5
475.005	7917.5
475.11	8064.5
475.215	7899.5
475.321	7902.5
475.426	8198.5
475.531	7972.5
475.636	7933.5
475.741	8052.5
475.846	8192.5
475.952	8231.5
476.057	8127.5
476.162	8239.5
476.267	8251.5
476.372	8495.5
476.477	8329.5
476.582	8260.5
476.687	8182.5
476.793	8428.5
476.898	8472.5
477.003	8486.5
477.108	8617.5
477.213	8585.5
477.318	8671.5
477.423	8814.5
477.528	8931.5
477.633	8997.5
477.738	9218.5
477.843	9199.5
477.948	9218.5
478.053	9317.5
478.158	9487.5
478.263	9559.5
478.368	9625.5
478.473	9870.5
478.578	9675.5
478.682	9831.5
478.787	9871.5
478.892	9845.5
478.997	10053.5
479.102	9923.5
479.207	9936.5
479.312	10112.5
479.417	10048.5
479.521	10032.5
479.626	10266.5
479.731	10201.5
479.836	10321.5
479.941	10531.5
480.045	10693.5
480.15	10806.5
480.255	10805.5
480.36	10887.5
480.465	10869.5
480.569	10977.5
480.674	10649.5
480.779	10292.5
480.883	10255.5
480.988	10385.5
481.093	10299.5
481.197	10173.5
481.302	10084.5
481.407	10079.5
481.511	12342.5
481.616	10209.5
481.721	10064.5
481.825	10316.5
481.93	9862.5
482.035	10024.5
482.139	10076.5
482.244	10288.5
482.348	10068.5
482.453	10129.5
482.557	10297.5
482.662	10169.5
482.767	10095.5
482.871	10368.5
482.976	10453.5
483.08	10445.5
483.185	10632.5
483.289	10564.5
483.394	10641.5
483.498	10718.5
483.603	10593.5
483.707	10785.5
483.811	10894.5
483.916	11029.5
484.02	11045.5
484.125	11289.5
484.229	11298.5
484.333	11418.5
484.438	11411.5
484.542	11432.5
484.647	11658.5
484.751	11762.5
484.855	11820.5
484.96	11739.5
485.064	11995.5
485.168	11997.5
485.273	12079.5
485.377	12120.5
485.481	12413.5
485.585	12340.5
485.69	12493.5
485.794	12502.5
485.898	12557.5
486.002	12581.5
486.107	12641.5
486.211	12515.5
486.315	12759.5
486.419	12776.5
486.524	12672.5
486.628	12746.5
486.732	12583.5
486.836	12583.5
486.94	12659.5
487.044	12750.5
487.148	12610.5
487.253	12568.5
487.357	12721.5
487.461	12873.5
487.565	12531.5
487.669	12815.5
487.773	12549.5
487.877	12735.5
487.981	12697.5
488.085	12604.5
488.189	12499.5
488.293	12832.5
488.397	13203.5
488.501	12619.5
488.605	12633.5
488.709	12583.5
488.813	12567.5
488.917	12688.5
489.021	12772.5
489.125	13048.5
489.229	12727.5
489.333	12979.5
489.437	12671.5
489.541	13022.5
489.645	12885.5
489.749	12962.5
489.853	12883.5
489.956	13004.5
490.06	12920.5
490.164	12899.5
490.268	12896.5
490.372	13111.5
490.476	13038.5
490.579	12997.5
490.683	13804.5
490.787	13206.5
490.891	12888.5
490.995	13096.5
491.098	12940.5
491.202	12968.5
491.306	13055.5
491.41	12948.5
491.513	12858.5
491.617	13044.5
491.721	13330.5
491.824	13165.5
491.928	13007.5
492.032	13367.5
492.136	13075.5
492.239	13138.5
492.343	13254.5
492.446	13814.5
492.55	13135.5
492.654	13092.5
492.757	13061.5
492.861	13161.5
492.965	13113.5
493.068	13280.5
493.172	13207.5
493.275	13206.5
493.379	13273.5
493.482	13404.5
493.586	13285.5
493.689	13503.5
493.793	13418.5
493.896	13474.5
494	13623.5
494.103	13600.5
494.207	13756.5
494.31	13837.5
494.414	13593.5
494.517	13473.5
494.621	13182.5
494.724	13379.5
494.828	13264.5
494.931	13174.5
495.034	13252.5
495.138	13421.5
495.241	13146.5
495.345	14230.5
495.448	13376.5
495.551	13221.5
495.655	13068.5
495.758	13069.5
495.861	13010.5
495.965	13263.5
496.068	13401.5
496.171	13320.5
496.274	13384.5
496.378	13440.5
496.481	13444.5
496.584	13526.5
496.687	13656.5
496.791	13637.5
496.894	13795.5
496.997	13908.5
497.1	13946.5
497.204	14132.5
497.307	14159.5
497.41	14586.5
497.513	14586.5
497.616	14586.5
497.719	14586.5
497.823	14586.5
497.926	14586.5
498.029	14586.5
498.132	14586.5
498.235	14586.5
498.338	14586.5
498.441	14586.5
498.544	14586.5
498.647	14586.5
498.75	14586.5
498.853	14586.5
498.956	14586.5
499.059	14586.5
499.163	14586.5
499.266	14586.5
499.369	14586.5
499.471	14586.5
499.574	14586.5
499.677	14586.5
499.78	14586.5
499.883	14586.5
499.986	14586.5
500.089	14586.5
500.192	14586.5
500.295	14586.5
500.398	14586.5
500.501	14586.5
500.604	14586.5
500.707	14586.5
500.809	14586.5
500.912	14586.5
501.015	14586.5
501.118	14586.5
501.221	14586.5
501.324	14586.5
501.426	14586.5
501.529	14586.5
501.632	14586.5
501.735	14586.5
501.837	14586.5
501.94	14586.5
502.043	14586.5
502.146	14586.5
502.248	14586.5
502.351	14586.5
502.454	14586.5
502.557	14586.5
502.659	14586.5
502.762	14154.5
502.865	13969.5
502.967	13659.5
503.07	13358.5
503.173	13360.5
503.275	13020.5
503.378	12891.5
503.48	12781.5
503.583	12820.5
503.686	12597.5
503.788	12842.5
503.891	12468.5
503.993	12776.5
504.096	12526.5
504.198	12676.5
504.301	12670.5
504.403	12836.5
504.506	12684.5
504.608	12248.5
504.711	11939.5
504.813	11873.5
504.916	11253.5
505.018	10949.5
505.121	10719.5
505.223	10780.5
505.326	10438.5
505.428	10429.5
505.531	10108.5
505.633	10185.5
505.735	9903.5
505.838	9951.5
505.94	9765.5
506.042	9782.5
506.145	9537.5
506.247	9649.5
506.35	9368.5
506.452	9530.5
506.554	9464.5
506.656	9468.5
506.759	9260.5
506.861	9233.5
506.963	9170.5
507.066	9082.5
507.168	9210.5
507.27	9104.5
507.372	8917.5
507.475	8965.5
507.577	8982.5
507.679	8837.5
507.781	8723.5
507.883	8815.5
507.986	8669.5
508.088	8663.5
508.19	8614.5
508.292	8707.5
508.394	8651.5
508.496	8641.5
508.598	8505.5
508.701	8523.5
508.803	8615.5
508.905	8345.5
509.007	8417.5
509.109	8550.5
509.211	8414.5
509.313	8309.5
509.415	8344.5
509.517	8343.5
509.619	8193.5
509.721	8392.5
509.823	8314.5
509.925	8434.5
510.027	8324.5
510.129	8306.5
510.231	8357.5
510.333	8135.5
510.435	8233.5
510.537	8355.5
510.639	8289.5
510.741	8169.5
510.843	8311.5
510.945	8198.5
511.047	8214.5
511.148	8372.5
511.25	8194.5
511.352	8283.5
511.454	8154.5
511.556	8310.5
511.658	8307.5
511.76	8439.5
511.861	8449.5
511.963	8221.5
512.065	8189.5
512.167	8244.5
512.268	8645.5
512.37	8347.5
512.472	8382.5
512.574	8350.5
512.676	8396.5
512.777	8273.5
512.879	8340.5
512.981	8191.5
513.082	8388.5
513.184	8457.5
513.286	9000.5
513.387	8602.5
513.489	8782.5
513.591	8567.5
513.692	8508.5
513.794	8611.5
513.896	8419.5
513.997	8509.5
514.099	8672.5
514.2	8647.5
514.302	8645.5
514.404	8825.5
514.505	8762.5
514.607	8878.5
514.708	8861.5
514.81	9210.5
514.911	9037.5
515.013	9150.5
515.114	9148.5
515.216	9209.5
515.317	9332.5
515.419	9312.5
515.52	9544.5
515.622	9525.5
515.723	9776.5
515.825	9997.5
515.926	9949.5
516.027	9986.5
516.129	10225.5
516.23	10261.5
516.332	10471.5
516.433	10858.5
516.534	11063.5
516.636	11061.5
516.737	11355.5
516.838	12858.5
516.94	12024.5
517.041	12276.5
517.142	12594.5
517.244	12697.5
517.345	12893.5
517.446	13052.5
517.547	13209.5
517.649	13140.5
517.75	13114.5
517.851	12978.5
517.952	13063.5
518.054	12784.5
518.155	12689.5
518.256	12282.5
518.357	12225.5
518.458	11757.5
518.56	11485.5
518.661	11587.5
518.762	11347.5
518.863	11400.5
518.964	11126.5
519.065	10981.5
519.166	10699.5
519.268	10626.5
519.369	10834.5
519.47	10281.5
519.571	10328.5
519.672	10176.5
519.773	10127.5
519.874	10239.5
519.975	10154.5
520.076	10089.5
520.177	10091.5
520.278	10110.5
520.379	10083.5
520.48	9734.5
520.581	9830.5
520.682	9749.5
520.783	9771.5
520.884	9967.5
520.985	9835.5
521.086	9843.5
521.187	9813.5
521.288	9510.5
521.389	9727.5
521.489	9497.5
521.59	9731.5
521.691	9697.5
521.792	9568.5
521.893	9814.5
521.994	9834.5
522.095	9619.5
522.195	9637.5
522.296	9711.5
522.397	9692.5
522.498	9454.5
522.599	9426.5
522.699	9601.5
522.8	9485.5
522.901	9581.5
523.002	9555.5
523.102	9740.5
523.203	9511.5
523.304	9825.5
523.405	9539.5
523.505	9505.5
523.606	9603.5
523.707	9588.5
523.807	9473.5
523.908	9530.5
524.009	9821.5
524.109	9577.5
524.21	9599.5
524.31	9669.5
524.411	9685.5
524.512	9770.5
524.612	9607.5
524.713	9943.5
524.813	9603.5
524.914	9909.5
525.014	14586.5
525.115	9938.5
525.216	9525.5
525.316	9751.5
525.417	9714.5
525.517	9524.5
525.618	9621.5
525.718	9638.5
525.819	9590.5
525.919	9746.5
526.019	9676.5
526.12	9727.5
526.22	9612.5
526.321	9713.5
526.421	9508.5
526.522	9697.5
526.622	9597.5
526.722	9654.5
526.823	9612.5
526.923	9662.5
527.023	9783.5
527.124	9699.5
527.224	9896.5
527.324	9583.5
527.425	9593.5
527.525	9529.5
527.625	9667.5
527.726	9569.5
527.826	9644.5
527.926	9793.5
528.026	9756.5
528.127	9470.5
528.227	9774.5
528.327	9765.5
528.427	9640.5
528.528	9625.5
528.628	9663.5
528.728	9660.5
528.828	9579.5
528.928	9649.5
529.029	9561.5
529.129	9606.5
529.229	9623.5
529.329	9499.5
529.429	9681.5
529.529	9797.5
529.629	9699.5
529.729	9604.5
529.829	9901.5
529.93	9427.5
530.03	9569.5
530.13	9506.5
530.23	9561.5
530.33	9728.5
530.43	9615.5
530.53	9689.5
530.63	9516.5
530.73	9426.5
530.83	9427.5
530.93	9449.5
531.03	9369.5
531.13	9634.5
531.23	9430.5
531.33	9545.5
531.429	9600.5
531.529	9709.5
531.629	9551.5
531.729	9264.5
531.829	9451.5
531.929	9464.5
532.029	9318.5
532.129	9373.5
532.229	9516.5
532.328	9341.5
532.428	9385.5
532.528	9157.5
532.628	9227.5
532.728	9166.5
532.827	9166.5
532.927	9267.5
533.027	9079.5
533.127	9300.5
533.227	9116.5
533.326	9050.5
533.426	9024.5
533.526	9148.5
533.625	9196.5
533.725	9303.5
533.825	9173.5
533.924	8992.5
534.024	8850.5
534.124	8864.5
534.223	8896.5
534.323	9279.5
534.423	8786.5
534.522	8854.5
534.622	8661.5
534.722	8694.5
534.821	8622.5
534.921	8483.5
535.02	8455.5
535.12	8644.5
535.219	8560.5
535.319	8530.5
535.419	8561.5
535.518	8349.5
535.618	8349.5
535.717	8560.5
535.817	8131.5
535.916	8051.5
536.016	8213.5
536.115	8215.5
536.215	8185.5
536.314	8082.5
536.413	7947.5
536.513	8023.5
536.612	7919.5
536.712	7814.5
536.811	7808.5
536.91	7830.5
537.01	7869.5
537.109	7824.5
537.209	7769.5
537.308	7866.5
537.407	7725.5
537.507	7757.5
537.606	7746.5
537.705	7887.5
537.805	7741.5
537.904	7557.5
538.003	7658.5
538.102	7548.5
538.202	7574.5
538.301	7532.5
538.4	7673.5
538.499	7524.5
538.599	7558.5
538.698	7665.5
538.797	7409.5
538.896	7449.5
538.995	7421.5
539.095	7248.5
539.194	7672.5
539.293	7344.5
539.392	7254.5
539.491	7330.5
539.59	7372.5
539.689	7426.5
539.789	7433.5
539.888	7125.5
539.987	7065.5
540.086	7103.5
540.185	7101.5
540.284	7177.5
540.383	7149.5
540.482	7076.5
540.581	7080.5
540.68	7059.5
540.779	7202.5
540.878	7003.5
540.977	7100.5
541.076	7088.5
541.175	7047.5
541.274	7247.5
541.373	6973.5
541.472	6988.5
541.571	6916.5
541.67	8419.5
541.769	7025.5
541.868	6970.5
541.966	6943.5
542.065	6831.5
542.164	6894.5
542.263	6786.5
542.362	6753.5
542.461	6928.5
542.56	6825.5
542.658	6769.5
542.757	6756.5
542.856	6825.5
542.955	6730.5
543.054	6629.5
543.152	6976.5
543.251	6754.5
