Data from 42g_HRC06701__50__537.txt Node

Date: Thu Apr 18 02:42:53 CDT 2024
User: Estudiantes 2
Spectrometer: HR+C0670
Trigger mode: 4
Integration Time (sec): 1.000000E0
Scans to average: 1
Electric dark correction enabled: true
Nonlinearity correction enabled: false
Boxcar width: 0
XAxis mode: Wavelengths
Number of Pixels in Spectrum: 2048
>>>>>Begin Spectral Data<<<<<
407.81	-144.69
407.921	-144.69
408.032	-144.69
408.143	-106.69
408.254	-171.69
408.365	27.31
408.476	314.31
408.587	-50.69
408.699	-38.69
408.81	4.31
408.921	-57.69
409.032	-73.69
409.143	89.31
409.254	54.31
409.365	87.31
409.476	-40.69
409.587	29.31
409.698	78.31
409.809	104.31
409.92	18.31
410.031	-39.69
410.142	61.31
410.253	70.31
410.364	57.31
410.475	832.31
410.585	4203.31
410.696	4567.31
410.807	4315.31
410.918	4374.31
411.029	4540.31
411.14	4442.31
411.251	4547.31
411.362	4548.31
411.472	4573.31
411.583	4523.31
411.694	4728.31
411.805	4604.31
411.916	4727.31
412.026	4843.31
412.137	4724.31
412.248	4578.31
412.359	4601.31
412.47	4431.31
412.58	4326.31
412.691	4560.31
412.802	4506.31
412.912	4416.31
413.023	4482.31
413.134	4499.31
413.245	4586.31
413.355	4497.31
413.466	4515.31
413.577	4452.31
413.687	4615.31
413.798	4276.31
413.909	4671.31
414.019	4548.31
414.13	4636.31
414.24	4603.31
414.351	4683.31
414.462	4857.31
414.572	4705.31
414.683	4615.31
414.793	4667.31
414.904	4980.31
415.014	4690.31
415.125	4550.31
415.235	4686.31
415.346	4792.31
415.456	4690.31
415.567	4595.31
415.677	4621.31
415.788	4613.31
415.898	4433.31
416.009	4522.31
416.119	4646.31
416.23	4581.31
416.34	4517.31
416.45	4716.31
416.561	5479.31
416.671	4627.31
416.782	4579.31
416.892	4716.31
417.002	4706.31
417.113	4824.31
417.223	4833.31
417.333	4695.31
417.444	4804.31
417.554	4843.31
417.664	5048.31
417.775	4761.31
417.885	4983.31
417.995	4961.31
418.106	5191.31
418.216	5228.31
418.326	5246.31
418.436	5290.31
418.547	5257.31
418.657	5152.31
418.767	5492.31
418.877	5424.31
418.987	5405.31
419.098	5380.31
419.208	5367.31
419.318	5398.31
419.428	5412.31
419.538	5289.31
419.648	5432.31
419.759	5391.31
419.869	5415.31
419.979	5371.31
420.089	5315.31
420.199	5421.31
420.309	5456.31
420.419	5427.31
420.529	5403.31
420.639	5945.31
420.749	5594.31
420.859	5563.31
420.969	5633.31
421.079	5826.31
421.189	5508.31
421.299	5488.31
421.409	5579.31
421.519	5772.31
421.629	5815.31
421.739	5769.31
421.849	5820.31
421.959	5671.31
422.069	5850.31
422.179	5880.31
422.289	5973.31
422.399	6065.31
422.509	6301.31
422.619	8986.31
422.729	6488.31
422.838	6197.31
422.948	6309.31
423.058	6303.31
423.168	6470.31
423.278	6521.31
423.388	6697.31
423.498	6711.31
423.607	6732.31
423.717	6994.31
423.827	7101.31
423.937	7010.31
424.046	6775.31
424.156	7032.31
424.266	6831.31
424.376	7226.31
424.485	7042.31
424.595	6866.31
424.705	6977.31
424.815	6934.31
424.924	7570.31
425.034	6932.31
425.144	6930.31
425.253	6833.31
425.363	7095.31
425.473	7186.31
425.582	6918.31
425.692	7117.31
425.801	6943.31
425.911	7209.31
426.021	7118.31
426.13	7255.31
426.24	7380.31
426.349	7398.31
426.459	7260.31
426.568	7166.31
426.678	7410.31
426.787	7434.31
426.897	7328.31
427.006	7446.31
427.116	7429.31
427.225	7394.31
427.335	7616.31
427.444	7417.31
427.554	7544.31
427.663	7729.31
427.773	7633.31
427.882	7794.31
427.992	7654.31
428.101	7702.31
428.21	7723.31
428.32	7912.31
428.429	7779.31
428.539	8225.31
428.648	7887.31
428.757	7894.31
428.867	8151.31
428.976	8237.31
429.085	8032.31
429.195	8159.31
429.304	8184.31
429.413	8163.31
429.523	8239.31
429.632	8396.31
429.741	8177.31
429.85	8220.31
429.96	8433.31
430.069	8307.31
430.178	8448.31
430.287	8874.31
430.397	8720.31
430.506	8643.31
430.615	8639.31
430.724	8788.31
430.833	8726.31
430.943	8829.31
431.052	8865.31
431.161	8863.31
431.27	9123.31
431.379	9307.31
431.488	9564.31
431.597	9388.31
431.706	9664.31
431.816	9526.31
431.925	9519.31
432.034	9368.31
432.143	9555.31
432.252	9338.31
432.361	9320.31
432.47	9431.31
432.579	9454.31
432.688	9396.31
432.797	9468.31
432.906	9362.31
433.015	9638.31
433.124	9799.31
433.233	9826.31
433.342	9512.31
433.451	9656.31
433.56	9640.31
433.669	9687.31
433.778	9672.31
433.886	10082.31
433.995	10029.31
434.104	10233.31
434.213	10330.31
434.322	10381.31
434.431	10827.31
434.54	11028.31
434.649	11417.31
434.757	11241.31
434.866	10841.31
434.975	10911.31
435.084	10551.31
435.193	10382.31
435.301	10426.31
435.41	10289.31
435.519	10360.31
435.628	9568.31
435.737	9396.31
435.845	9187.31
435.954	9222.31
436.063	9229.31
436.171	9334.31
436.28	9190.31
436.389	9559.31
436.498	9143.31
436.606	9255.31
436.715	9593.31
436.823	9063.31
436.932	8874.31
437.041	8786.31
437.149	8873.31
437.258	8646.31
437.367	8413.31
437.475	8612.31
437.584	8841.31
437.692	8449.31
437.801	10307.31
437.91	8435.31
438.018	8424.31
438.127	8332.31
438.235	8513.31
438.344	8430.31
438.452	8321.31
438.561	8248.31
438.669	8359.31
438.778	8106.31
438.886	8354.31
438.995	8309.31
439.103	8365.31
439.212	8391.31
439.32	8414.31
439.428	8393.31
439.537	8551.31
439.645	8635.31
439.754	8640.31
439.862	8401.31
439.97	8640.31
440.079	8656.31
440.187	8485.31
440.295	8775.31
440.404	8770.31
440.512	8711.31
440.62	9000.31
440.729	8997.31
440.837	9005.31
440.945	9984.31
441.054	9491.31
441.162	9509.31
441.27	9837.31
441.378	10017.31
441.487	9962.31
441.595	10474.31
441.703	9922.31
441.811	9645.31
441.92	9519.31
442.028	9403.31
442.136	9459.31
442.244	9300.31
442.352	9348.31
442.461	9235.31
442.569	9282.31
442.677	9320.31
442.785	9333.31
442.893	9340.31
443.001	9219.31
443.109	9275.31
443.217	9355.31
443.325	9336.31
443.434	10140.31
443.542	9952.31
443.65	9646.31
443.758	9920.31
443.866	10031.31
443.974	10428.31
444.082	10364.31
444.19	10810.31
444.298	10969.31
444.406	11334.31
444.514	11644.31
444.622	11760.31
444.73	11637.31
444.838	11329.31
444.946	10853.31
445.054	10527.31
445.161	10365.31
445.269	10015.31
445.377	9828.31
445.485	9786.31
445.593	9727.31
445.701	9707.31
445.809	9584.31
445.917	9446.31
446.025	9340.31
446.132	9482.31
446.24	9448.31
446.348	9335.31
446.456	9155.31
446.564	9288.31
446.671	9234.31
446.779	9080.31
446.887	9135.31
446.995	9056.31
447.102	9008.31
447.21	8976.31
447.318	9048.31
447.426	8855.31
447.533	9315.31
447.641	10384.31
447.749	9111.31
447.856	8888.31
447.964	8935.31
448.072	9174.31
448.179	8935.31
448.287	8893.31
448.395	8998.31
448.502	8764.31
448.61	9008.31
448.718	8966.31
448.825	8978.31
448.933	8971.31
449.04	9123.31
449.148	9194.31
449.256	9075.31
449.363	9182.31
449.471	9292.31
449.578	9336.31
449.686	9309.31
449.793	9624.31
449.901	9336.31
450.008	9524.31
450.116	9754.31
450.223	9612.31
450.331	9835.31
450.438	9989.31
450.546	10085.31
450.653	10333.31
450.76	10423.31
450.868	10341.31
450.975	10506.31
451.083	10285.31
451.19	10454.31
451.297	10213.31
451.405	10420.31
451.512	10452.31
451.619	10699.31
451.727	10629.31
451.834	10518.31
451.941	10614.31
452.049	10618.31
452.156	10766.31
452.263	10827.31
452.371	10791.31
452.478	10895.31
452.585	11058.31
452.692	10793.31
452.8	10883.31
452.907	11249.31
453.014	11151.31
453.121	11032.31
453.229	11342.31
453.336	11172.31
453.443	11238.31
453.55	11140.31
453.657	11209.31
453.765	11531.31
453.872	11259.31
453.979	11501.31
454.086	11620.31
454.193	11507.31
454.3	11482.31
454.407	11637.31
454.514	11759.31
454.621	11603.31
454.729	11573.31
454.836	11672.31
454.943	11973.31
455.05	11826.31
455.157	12111.31
455.264	11879.31
455.371	12035.31
455.478	12037.31
455.585	13757.31
455.692	12472.31
455.799	12396.31
455.906	12298.31
456.013	12322.31
456.12	12414.31
456.227	12460.31
456.334	12750.31
456.44	12765.31
456.547	12718.31
456.654	12508.31
456.761	12812.31
456.868	12890.31
456.975	12918.31
457.082	12951.31
457.189	12844.31
457.296	12930.31
457.402	13128.31
457.509	13076.31
457.616	13383.31
457.723	13816.31
457.83	13692.31
457.936	13787.31
458.043	14199.31
458.15	14071.31
458.257	14247.31
458.363	14556.31
458.47	14589.31
458.577	14589.31
458.684	14589.31
458.79	14589.31
458.897	14589.31
459.004	14589.31
459.11	14589.31
459.217	14589.31
459.324	14589.31
459.43	14589.31
459.537	14589.31
459.644	14589.31
459.75	14589.31
459.857	14589.31
459.964	14589.31
460.07	14589.31
460.177	14589.31
460.283	14589.31
460.39	14589.31
460.496	14589.31
460.603	14589.31
460.71	14589.31
460.816	14589.31
460.923	14589.31
461.029	14589.31
461.136	14589.31
461.242	14589.31
461.349	14589.31
461.455	14589.31
461.562	14589.31
461.668	14589.31
461.774	14589.31
461.881	14589.31
461.987	14589.31
462.094	14589.31
462.2	14589.31
462.307	14589.31
462.413	14589.31
462.519	14589.31
462.626	14589.31
462.732	14589.31
462.838	14589.31
462.945	14589.31
463.051	14589.31
463.157	14589.31
463.264	14589.31
463.37	14589.31
463.476	14589.31
463.583	14589.31
463.689	14589.31
463.795	14589.31
463.901	14589.31
464.008	14589.31
464.114	14589.31
464.22	14589.31
464.326	14589.31
464.433	14589.31
464.539	14589.31
464.645	14589.31
464.751	14589.31
464.857	14589.31
464.963	14589.31
465.07	14589.31
465.176	14589.31
465.282	14589.31
465.388	14589.31
465.494	14589.31
465.6	14589.31
465.706	14589.31
465.812	14589.31
465.918	14589.31
466.024	14589.31
466.131	14589.31
466.237	14273.31
466.343	14003.31
466.449	13916.31
466.555	13547.31
466.661	13322.31
466.767	13356.31
466.873	13238.31
466.979	13457.31
467.085	13201.31
467.191	13292.31
467.296	13216.31
467.402	13199.31
467.508	13076.31
467.614	13099.31
467.72	12474.31
467.826	12512.31
467.932	12427.31
468.038	12213.31
468.144	12263.31
468.25	11967.31
468.355	12060.31
468.461	12057.31
468.567	12097.31
468.673	11842.31
468.779	11855.31
468.885	11885.31
468.99	11924.31
469.096	11975.31
469.202	12146.31
469.308	12058.31
469.413	12345.31
469.519	12307.31
469.625	12423.31
469.731	12417.31
469.836	12504.31
469.942	12723.31
470.048	12576.31
470.153	12475.31
470.259	12581.31
470.365	12625.31
470.47	12538.31
470.576	12265.31
470.682	12240.31
470.787	12032.31
470.893	11960.31
470.999	11744.31
471.104	11700.31
471.21	11349.31
471.315	11146.31
471.421	11142.31
471.527	11339.31
471.632	11173.31
471.738	10812.31
471.843	10836.31
471.949	10747.31
472.054	10740.31
472.16	10534.31
472.265	10442.31
472.371	10347.31
472.476	10380.31
472.582	10533.31
472.687	10198.31
472.793	10250.31
472.898	10161.31
473.003	10234.31
473.109	9906.31
473.214	9885.31
473.32	10116.31
473.425	10026.31
473.53	9888.31
473.636	9973.31
473.741	9781.31
473.847	9787.31
473.952	9949.31
474.057	9906.31
474.163	9873.31
474.268	9893.31
474.373	10045.31
474.478	9737.31
474.584	9773.31
474.689	10080.31
474.794	9852.31
474.9	10262.31
475.005	9910.31
475.11	10069.31
475.215	9959.31
475.321	9892.31
475.426	10153.31
475.531	10119.31
475.636	9985.31
475.741	10105.31
475.846	10318.31
475.952	10376.31
476.057	10076.31
476.162	10224.31
476.267	10283.31
476.372	10572.31
476.477	10278.31
476.582	10398.31
476.687	10499.31
476.793	10532.31
476.898	10569.31
477.003	10694.31
477.108	10778.31
477.213	10776.31
477.318	10942.31
477.423	11123.31
477.528	11295.31
477.633	11555.31
477.738	11636.31
477.843	11619.31
477.948	11730.31
478.053	11860.31
478.158	12030.31
478.263	12045.31
478.368	11971.31
478.473	12411.31
478.578	12328.31
478.682	12541.31
478.787	12783.31
478.892	12542.31
478.997	12703.31
479.102	12571.31
479.207	12572.31
479.312	12740.31
479.417	12536.31
479.521	12628.31
479.626	12928.31
479.731	12980.31
479.836	12997.31
479.941	13512.31
480.045	13542.31
480.15	14066.31
480.255	14014.31
480.36	14048.31
480.465	13926.31
480.569	13978.31
480.674	13383.31
480.779	13201.31
480.883	13343.31
480.988	13083.31
481.093	13124.31
481.197	12910.31
481.302	12859.31
481.407	12750.31
481.511	14589.31
481.616	12882.31
481.721	12871.31
481.825	13084.31
481.93	12935.31
482.035	12874.31
482.139	12997.31
482.244	12987.31
482.348	13063.31
482.453	13211.31
482.557	13288.31
482.662	13152.31
482.767	13173.31
482.871	13389.31
482.976	13436.31
483.08	13596.31
483.185	13771.31
483.289	13816.31
483.394	13781.31
483.498	14065.31
483.603	14042.31
483.707	14218.31
483.811	14197.31
483.916	14407.31
484.02	14395.31
484.125	14589.31
484.229	14589.31
484.333	14589.31
484.438	14589.31
484.542	14589.31
484.647	14589.31
484.751	14589.31
484.855	14589.31
484.96	14589.31
485.064	14589.31
485.168	14589.31
485.273	14589.31
485.377	14589.31
485.481	14589.31
485.585	14589.31
485.69	14589.31
485.794	14589.31
485.898	14589.31
486.002	14589.31
486.107	14589.31
486.211	14589.31
486.315	14589.31
486.419	14589.31
486.524	14589.31
486.628	14589.31
486.732	14589.31
486.836	14589.31
486.94	14589.31
487.044	14589.31
487.148	14589.31
487.253	14589.31
487.357	14589.31
487.461	14589.31
487.565	14589.31
487.669	14589.31
487.773	14589.31
487.877	14589.31
487.981	14589.31
488.085	14589.31
488.189	14589.31
488.293	14589.31
488.397	14589.31
488.501	14589.31
488.605	14589.31
488.709	14589.31
488.813	14589.31
488.917	14589.31
489.021	14589.31
489.125	14589.31
489.229	14589.31
489.333	14589.31
489.437	14589.31
489.541	14589.31
489.645	14589.31
489.749	14589.31
489.853	14589.31
489.956	14589.31
490.06	14589.31
490.164	14589.31
490.268	14589.31
490.372	14589.31
490.476	14589.31
490.579	14589.31
490.683	14589.31
490.787	14589.31
490.891	14589.31
490.995	14589.31
491.098	14589.31
491.202	14589.31
491.306	14589.31
491.41	14589.31
491.513	14589.31
491.617	14589.31
491.721	14589.31
491.824	14589.31
491.928	14589.31
492.032	14589.31
492.136	14589.31
492.239	14589.31
492.343	14589.31
492.446	14589.31
492.55	14589.31
492.654	14589.31
492.757	14589.31
492.861	14589.31
492.965	14589.31
493.068	14589.31
493.172	14589.31
493.275	14589.31
493.379	14589.31
493.482	14589.31
493.586	14589.31
493.689	14589.31
493.793	14589.31
493.896	14589.31
494	14589.31
494.103	14589.31
494.207	14589.31
494.31	14589.31
494.414	14589.31
494.517	14589.31
494.621	14589.31
494.724	14589.31
494.828	14589.31
494.931	14589.31
495.034	14589.31
495.138	14589.31
495.241	14589.31
495.345	14589.31
495.448	14589.31
495.551	14589.31
495.655	14589.31
495.758	14589.31
495.861	14589.31
495.965	14589.31
496.068	14589.31
496.171	14589.31
496.274	14589.31
496.378	14589.31
496.481	14589.31
496.584	14589.31
496.687	14589.31
496.791	14589.31
496.894	14589.31
496.997	14589.31
497.1	14589.31
497.204	14589.31
497.307	14589.31
497.41	14589.31
497.513	14589.31
497.616	14589.31
497.719	14589.31
497.823	14589.31
497.926	14589.31
498.029	14589.31
498.132	14589.31
498.235	14589.31
498.338	14589.31
498.441	14589.31
498.544	14589.31
498.647	14589.31
498.75	14589.31
498.853	14589.31
498.956	14589.31
499.059	14589.31
499.163	14589.31
499.266	14589.31
499.369	14589.31
499.471	14589.31
499.574	14589.31
499.677	14589.31
499.78	14589.31
499.883	14589.31
499.986	14589.31
500.089	14589.31
500.192	14589.31
500.295	14589.31
500.398	14589.31
500.501	14589.31
500.604	14589.31
500.707	14589.31
500.809	14589.31
500.912	14589.31
501.015	14589.31
501.118	14589.31
501.221	14589.31
501.324	14589.31
501.426	14589.31
501.529	14589.31
501.632	14589.31
501.735	14589.31
501.837	14589.31
501.94	14589.31
502.043	14589.31
502.146	14589.31
502.248	14589.31
502.351	14589.31
502.454	14589.31
502.557	14589.31
502.659	14589.31
502.762	14589.31
502.865	14589.31
502.967	14589.31
503.07	14589.31
503.173	14589.31
503.275	14589.31
503.378	14589.31
503.48	14589.31
503.583	14589.31
503.686	14589.31
503.788	14589.31
503.891	14589.31
503.993	14589.31
504.096	14589.31
504.198	14589.31
504.301	14589.31
504.403	14589.31
504.506	14589.31
504.608	14589.31
504.711	14589.31
504.813	14589.31
504.916	14239.31
505.018	13888.31
505.121	13651.31
505.223	13491.31
505.326	13185.31
505.428	13173.31
505.531	13023.31
505.633	12739.31
505.735	12664.31
505.838	12475.31
505.94	12342.31
506.042	12371.31
506.145	12322.31
506.247	12187.31
506.35	11986.31
506.452	12099.31
506.554	11952.31
506.656	11858.31
506.759	11775.31
506.861	11759.31
506.963	11585.31
507.066	11821.31
507.168	11688.31
507.27	11657.31
507.372	11413.31
507.475	11459.31
507.577	11321.31
507.679	11285.31
507.781	11163.31
507.883	11276.31
507.986	11133.31
508.088	11158.31
508.19	11035.31
508.292	11026.31
508.394	10883.31
508.496	10952.31
508.598	11011.31
508.701	11018.31
508.803	11004.31
508.905	10759.31
509.007	10859.31
509.109	10956.31
509.211	10716.31
509.313	10731.31
509.415	10539.31
509.517	10736.31
509.619	10559.31
509.721	10598.31
509.823	10712.31
509.925	10852.31
510.027	10604.31
510.129	10665.31
510.231	10666.31
510.333	10625.31
510.435	10576.31
510.537	10573.31
510.639	10545.31
510.741	10637.31
510.843	10692.31
510.945	10460.31
511.047	10552.31
511.148	10665.31
511.25	10631.31
511.352	10617.31
511.454	10491.31
511.556	10717.31
511.658	10482.31
511.76	10637.31
511.861	10776.31
511.963	10487.31
512.065	10549.31
512.167	10446.31
512.268	10719.31
512.37	10653.31
512.472	10739.31
512.574	10674.31
512.676	10802.31
512.777	10628.31
512.879	10691.31
512.981	10747.31
513.082	10886.31
513.184	10734.31
513.286	11328.31
513.387	10869.31
513.489	11032.31
513.591	10860.31
513.692	10903.31
513.794	11028.31
513.896	10674.31
513.997	10872.31
514.099	11072.31
514.2	11109.31
514.302	11184.31
514.404	11242.31
514.505	11142.31
514.607	11312.31
514.708	11266.31
514.81	11295.31
514.911	11536.31
515.013	11665.31
515.114	11665.31
515.216	11620.31
515.317	11909.31
515.419	12022.31
515.52	12044.31
515.622	12150.31
515.723	12192.31
515.825	12588.31
515.926	12564.31
516.027	12664.31
516.129	12814.31
516.23	13178.31
516.332	13274.31
516.433	13571.31
516.534	13712.31
516.636	14117.31
516.737	14407.31
516.838	14589.31
516.94	14589.31
517.041	14589.31
517.142	14589.31
517.244	14589.31
517.345	14589.31
517.446	14589.31
517.547	14589.31
517.649	14589.31
517.75	14589.31
517.851	14589.31
517.952	14589.31
518.054	14589.31
518.155	14589.31
518.256	14589.31
518.357	14589.31
518.458	14589.31
518.56	14589.31
518.661	14506.31
518.762	14146.31
518.863	14276.31
518.964	13956.31
519.065	13618.31
519.166	13496.31
519.268	13382.31
519.369	13632.31
519.47	13258.31
519.571	13242.31
519.672	13039.31
519.773	12817.31
519.874	12819.31
519.975	12888.31
520.076	12899.31
520.177	12735.31
520.278	12776.31
520.379	12730.31
520.48	12533.31
520.581	12581.31
520.682	12638.31
520.783	12679.31
520.884	12556.31
520.985	12520.31
521.086	12409.31
521.187	12457.31
521.288	12346.31
521.389	12529.31
521.489	12343.31
521.59	12242.31
521.691	12499.31
521.792	12329.31
521.893	12524.31
521.994	12435.31
522.095	12244.31
522.195	12322.31
522.296	12449.31
522.397	12304.31
522.498	12274.31
522.599	12282.31
522.699	12322.31
522.8	12071.31
522.901	12352.31
523.002	12248.31
523.102	12293.31
523.203	12279.31
523.304	12402.31
523.405	12322.31
523.505	12259.31
523.606	12336.31
523.707	12421.31
523.807	12335.31
523.908	12209.31
524.009	12517.31
524.109	12313.31
524.21	12344.31
524.31	12534.31
524.411	12428.31
524.512	12533.31
524.612	12362.31
524.713	12611.31
524.813	12419.31
524.914	12767.31
525.014	14589.31
525.115	12558.31
525.216	12396.31
525.316	12636.31
525.417	12413.31
525.517	12452.31
525.618	12466.31
525.718	12313.31
525.819	12410.31
525.919	12581.31
526.019	12296.31
526.12	12447.31
526.22	12346.31
526.321	12535.31
526.421	12471.31
526.522	12440.31
526.622	12474.31
526.722	12455.31
526.823	12384.31
526.923	12596.31
527.023	12678.31
527.124	12415.31
527.224	12723.31
527.324	12458.31
527.425	12506.31
527.525	12371.31
527.625	12482.31
527.726	12391.31
527.826	12466.31
527.926	12584.31
528.026	12465.31
528.127	12419.31
528.227	12584.31
528.327	12492.31
528.427	12348.31
528.528	12611.31
528.628	12561.31
528.728	12426.31
528.828	12631.31
528.928	12667.31
529.029	12417.31
529.129	12395.31
529.229	12587.31
529.329	12483.31
529.429	12482.31
529.529	12577.31
529.629	12459.31
529.729	12439.31
529.829	12691.31
529.93	12508.31
530.03	12420.31
530.13	12358.31
530.23	12304.31
530.33	12371.31
530.43	12380.31
530.53	12499.31
530.63	12323.31
530.73	12373.31
530.83	12305.31
530.93	12241.31
531.03	12274.31
531.13	12406.31
531.23	12338.31
531.33	12301.31
531.429	12442.31
531.529	12495.31
531.629	12129.31
531.729	12136.31
531.829	12387.31
531.929	12231.31
532.029	12157.31
532.129	12050.31
532.229	12365.31
532.328	12178.31
532.428	12036.31
532.528	11890.31
532.628	11867.31
532.728	11930.31
532.827	11746.31
