Data from 42g_HRC06701__58__545.txt Node

Date: Thu Apr 18 02:43:01 CDT 2024
User: Estudiantes 2
Spectrometer: HR+C0670
Trigger mode: 4
Integration Time (sec): 1.000000E0
Scans to average: 1
Electric dark correction enabled: true
Nonlinearity correction enabled: false
Boxcar width: 0
XAxis mode: Wavelengths
Number of Pixels in Spectrum: 2048
>>>>>Begin Spectral Data<<<<<
407.81	-105.12
407.921	-105.12
408.032	-105.12
408.143	-163.12
408.254	-138.12
408.365	80.88
408.476	238.88
408.587	-21.12
408.699	21.88
408.81	-39.12
408.921	-70.12
409.032	-16.12
409.143	36.88
409.254	8.88
409.365	99.88
409.476	4.88
409.587	12.88
409.698	47.88
409.809	94.88
409.92	-36.12
410.031	-55.12
410.142	59.88
410.253	17.88
410.364	19.88
410.475	1127.88
410.585	5410.88
410.696	5818.88
410.807	5601.88
410.918	5668.88
411.029	5701.88
411.14	5704.88
411.251	5740.88
411.362	5825.88
411.472	5955.88
411.583	5735.88
411.694	5980.88
411.805	5918.88
411.916	5954.88
412.026	6057.88
412.137	5957.88
412.248	5902.88
412.359	5909.88
412.47	5745.88
412.58	5664.88
412.691	5948.88
412.802	5719.88
412.912	5736.88
413.023	5709.88
413.134	5666.88
413.245	5757.88
413.355	5765.88
413.466	5635.88
413.577	5620.88
413.687	5921.88
413.798	5740.88
413.909	5849.88
414.019	5784.88
414.13	5897.88
414.24	5769.88
414.351	5922.88
414.462	6195.88
414.572	5909.88
414.683	5804.88
414.793	5805.88
414.904	6160.88
415.014	5721.88
415.125	5725.88
415.235	5896.88
415.346	6016.88
415.456	5869.88
415.567	5857.88
415.677	5684.88
415.788	5787.88
415.898	5723.88
416.009	5801.88
416.119	5817.88
416.23	5880.88
416.34	5707.88
416.45	5774.88
416.561	6699.88
416.671	6019.88
416.782	5814.88
416.892	5898.88
417.002	5953.88
417.113	6051.88
417.223	5992.88
417.333	5897.88
417.444	6100.88
417.554	6115.88
417.664	6145.88
417.775	6140.88
417.885	6184.88
417.995	6225.88
418.106	6691.88
418.216	6272.88
418.326	6540.88
418.436	6682.88
418.547	6769.88
418.657	6713.88
418.767	6833.88
418.877	6840.88
418.987	6872.88
419.098	6776.88
419.208	6922.88
419.318	6787.88
419.428	6863.88
419.538	6796.88
419.648	6762.88
419.759	6752.88
419.869	6861.88
419.979	6709.88
420.089	6842.88
420.199	6889.88
420.309	6821.88
420.419	6774.88
420.529	6854.88
420.639	7349.88
420.749	6981.88
420.859	7020.88
420.969	7096.88
421.079	7255.88
421.189	7023.88
421.299	7006.88
421.409	6937.88
421.519	7028.88
421.629	7277.88
421.739	7215.88
421.849	7206.88
421.959	7355.88
422.069	7348.88
422.179	7421.88
422.289	7525.88
422.399	7636.88
422.509	7677.88
422.619	10580.88
422.729	8016.88
422.838	7824.88
422.948	7970.88
423.058	7938.88
423.168	7969.88
423.278	7976.88
423.388	8124.88
423.498	8475.88
423.607	8206.88
423.717	8704.88
423.827	8812.88
423.937	8444.88
424.046	8569.88
424.156	8628.88
424.266	8539.88
424.376	8847.88
424.485	8671.88
424.595	8697.88
424.705	8578.88
424.815	8723.88
424.924	9237.88
425.034	8648.88
425.144	8637.88
425.253	8722.88
425.363	8803.88
425.473	8868.88
425.582	8858.88
425.692	8836.88
425.801	8757.88
425.911	9018.88
426.021	8905.88
426.13	9074.88
426.24	9129.88
426.349	9242.88
426.459	9146.88
426.568	9144.88
426.678	9385.88
426.787	9358.88
426.897	9256.88
427.006	9548.88
427.116	9442.88
427.225	9315.88
427.335	9634.88
427.444	9439.88
427.554	9440.88
427.663	9579.88
427.773	9648.88
427.882	9742.88
427.992	9612.88
428.101	9858.88
428.21	9649.88
428.32	9877.88
428.429	9749.88
428.539	10144.88
428.648	9967.88
428.757	9926.88
428.867	10174.88
428.976	10288.88
429.085	10360.88
429.195	10258.88
429.304	10150.88
429.413	10366.88
429.523	10462.88
429.632	10187.88
429.741	10342.88
429.85	10370.88
429.96	10519.88
430.069	10475.88
430.178	10737.88
430.287	10996.88
430.397	10637.88
430.506	10666.88
430.615	10738.88
430.724	10870.88
430.833	10951.88
430.943	11006.88
431.052	10981.88
431.161	11116.88
431.27	11301.88
431.379	11426.88
431.488	11931.88
431.597	11732.88
431.706	11676.88
431.816	11740.88
431.925	11528.88
432.034	11764.88
432.143	11614.88
432.252	11521.88
432.361	11747.88
432.47	11562.88
432.579	11726.88
432.688	11629.88
432.797	11566.88
432.906	11567.88
433.015	11795.88
433.124	12137.88
433.233	11954.88
433.342	11747.88
433.451	11950.88
433.56	11754.88
433.669	11909.88
433.778	11688.88
433.886	12095.88
433.995	12020.88
434.104	12544.88
434.213	12413.88
434.322	12496.88
434.431	12836.88
434.54	13347.88
434.649	13490.88
434.757	13439.88
434.866	13148.88
434.975	13086.88
435.084	12711.88
435.193	12431.88
435.301	12479.88
435.41	12261.88
435.519	12377.88
435.628	11517.88
435.737	11415.88
435.845	11403.88
435.954	11224.88
436.063	11092.88
436.171	11308.88
436.28	11343.88
436.389	11325.88
436.498	11042.88
436.606	11308.88
436.715	11169.88
436.823	10885.88
436.932	10671.88
437.041	10633.88
437.149	10810.88
437.258	10568.88
437.367	10436.88
437.475	10492.88
437.584	10819.88
437.692	10435.88
437.801	12053.88
437.91	10404.88
438.018	10288.88
438.127	10200.88
438.235	10431.88
438.344	10326.88
438.452	10268.88
438.561	10107.88
438.669	10164.88
438.778	9950.88
438.886	10081.88
438.995	10037.88
439.103	10270.88
439.212	10254.88
439.32	10405.88
439.428	10151.88
439.537	10146.88
439.645	10413.88
439.754	10470.88
439.862	10238.88
439.97	10386.88
440.079	10455.88
440.187	10377.88
440.295	10577.88
440.404	10598.88
440.512	10562.88
440.62	10728.88
440.729	10780.88
440.837	10947.88
440.945	11901.88
441.054	11270.88
441.162	11290.88
441.27	11787.88
441.378	11797.88
441.487	11890.88
441.595	12340.88
441.703	11888.88
441.811	11607.88
441.92	11577.88
442.028	11118.88
442.136	11374.88
442.244	11349.88
442.352	11341.88
442.461	11001.88
442.569	11137.88
442.677	11151.88
442.785	11237.88
442.893	11064.88
443.001	11262.88
443.109	11109.88
443.217	11162.88
443.325	11262.88
443.434	12218.88
443.542	11686.88
443.65	11627.88
443.758	11792.88
443.866	11750.88
443.974	12417.88
444.082	12369.88
444.19	12625.88
444.298	12845.88
444.406	13327.88
444.514	13706.88
444.622	13693.88
444.73	13811.88
444.838	13114.88
444.946	12971.88
445.054	12465.88
445.161	12329.88
445.269	12018.88
445.377	11916.88
445.485	11734.88
445.593	11464.88
445.701	11748.88
445.809	11531.88
445.917	11410.88
446.025	11301.88
446.132	11558.88
446.24	11379.88
446.348	11343.88
446.456	11214.88
446.564	11054.88
446.671	11200.88
446.779	11117.88
446.887	11155.88
446.995	10865.88
447.102	11037.88
447.21	11050.88
447.318	10928.88
447.426	10876.88
447.533	11170.88
447.641	12248.88
447.749	10968.88
447.856	10927.88
447.964	10858.88
448.072	10863.88
448.179	10815.88
448.287	10947.88
448.395	11089.88
448.502	10925.88
448.61	11187.88
448.718	10965.88
448.825	11014.88
448.933	11038.88
449.04	10996.88
449.148	11164.88
449.256	11265.88
449.363	11151.88
449.471	11346.88
449.578	11552.88
449.686	11409.88
449.793	11754.88
449.901	11533.88
450.008	11899.88
450.116	11827.88
450.223	11898.88
450.331	12090.88
450.438	12290.88
450.546	12259.88
450.653	12390.88
450.76	12490.88
450.868	12531.88
450.975	12964.88
451.083	12703.88
451.19	12873.88
451.297	12671.88
451.405	12774.88
451.512	12797.88
451.619	12875.88
451.727	12933.88
451.834	12853.88
451.941	12789.88
452.049	12990.88
452.156	12996.88
452.263	13169.88
452.371	13323.88
452.478	13420.88
452.585	13305.88
452.692	13301.88
452.8	13350.88
452.907	13613.88
453.014	13265.88
453.121	13399.88
453.229	13541.88
453.336	13470.88
453.443	13601.88
453.55	13720.88
453.657	13379.88
453.765	13761.88
453.872	13818.88
453.979	13907.88
454.086	13984.88
454.193	13868.88
454.3	13586.88
454.407	14113.88
454.514	14265.88
454.621	13848.88
454.729	14010.88
454.836	14232.88
454.943	14083.88
455.05	14107.88
455.157	14286.88
455.264	14141.88
455.371	14486.88
455.478	14540.88
455.585	14582.88
455.692	14582.88
455.799	14582.88
455.906	14582.88
456.013	14536.88
456.12	14582.88
456.227	14582.88
456.334	14582.88
456.44	14582.88
456.547	14582.88
456.654	14582.88
456.761	14582.88
456.868	14582.88
456.975	14582.88
457.082	14582.88
457.189	14582.88
457.296	14582.88
457.402	14582.88
457.509	14582.88
457.616	14582.88
457.723	14582.88
457.83	14582.88
457.936	14582.88
458.043	14582.88
458.15	14582.88
458.257	14582.88
458.363	14582.88
458.47	14582.88
458.577	14582.88
458.684	14582.88
458.79	14582.88
458.897	14582.88
459.004	14582.88
459.11	14582.88
459.217	14582.88
459.324	14582.88
459.43	14582.88
459.537	14582.88
459.644	14582.88
459.75	14582.88
459.857	14582.88
459.964	14582.88
460.07	14582.88
460.177	14582.88
460.283	14582.88
460.39	14582.88
460.496	14582.88
460.603	14582.88
460.71	14582.88
460.816	14582.88
460.923	14582.88
461.029	14582.88
461.136	14582.88
461.242	14582.88
461.349	14582.88
461.455	14582.88
461.562	14582.88
461.668	14582.88
461.774	14582.88
461.881	14582.88
461.987	14582.88
462.094	14582.88
462.2	14582.88
462.307	14582.88
462.413	14582.88
462.519	14582.88
462.626	14582.88
462.732	14582.88
462.838	14582.88
462.945	14582.88
463.051	14582.88
463.157	14582.88
463.264	14582.88
463.37	14582.88
463.476	14582.88
463.583	14582.88
463.689	14582.88
463.795	14582.88
463.901	14582.88
464.008	14582.88
464.114	14582.88
464.22	14582.88
464.326	14582.88
464.433	14582.88
464.539	14582.88
464.645	14582.88
464.751	14582.88
464.857	14582.88
464.963	14582.88
465.07	14582.88
465.176	14582.88
465.282	14582.88
465.388	14582.88
465.494	14582.88
465.6	14582.88
465.706	14582.88
465.812	14582.88
465.918	14582.88
466.024	14582.88
466.131	14582.88
466.237	14582.88
466.343	14582.88
466.449	14582.88
466.555	14582.88
466.661	14582.88
466.767	14582.88
466.873	14582.88
466.979	14582.88
467.085	14582.88
467.191	14582.88
467.296	14582.88
467.402	14582.88
467.508	14582.88
467.614	14582.88
467.72	14305.88
467.826	14101.88
467.932	13825.88
468.038	13764.88
468.144	13916.88
468.25	13531.88
468.355	13736.88
468.461	13452.88
468.567	13460.88
468.673	13469.88
468.779	13416.88
468.885	13356.88
468.99	13405.88
469.096	13560.88
469.202	13598.88
469.308	13558.88
469.413	13731.88
469.519	13692.88
469.625	13958.88
469.731	13956.88
469.836	13992.88
469.942	14316.88
470.048	14157.88
470.153	14154.88
470.259	14073.88
470.365	14107.88
470.47	14191.88
470.576	13811.88
470.682	13680.88
470.787	13505.88
470.893	13197.88
470.999	13365.88
471.104	13157.88
471.21	12893.88
471.315	12724.88
471.421	12564.88
471.527	12765.88
471.632	12581.88
471.738	12347.88
471.843	12190.88
471.949	12102.88
472.054	12015.88
472.16	11854.88
472.265	11904.88
472.371	11686.88
472.476	11545.88
472.582	11748.88
472.687	11549.88
472.793	11508.88
472.898	11564.88
473.003	11304.88
473.109	11140.88
473.214	11299.88
473.32	11131.88
473.425	11252.88
473.53	11220.88
473.636	11160.88
473.741	10922.88
473.847	11023.88
473.952	11060.88
474.057	11106.88
474.163	11117.88
474.268	11098.88
474.373	11199.88
474.478	10991.88
474.584	11070.88
474.689	11052.88
474.794	11088.88
474.9	11269.88
475.005	10911.88
475.11	11317.88
475.215	11017.88
475.321	11133.88
475.426	11363.88
475.531	11360.88
475.636	11196.88
475.741	10975.88
475.846	11296.88
475.952	11464.88
476.057	11254.88
476.162	11196.88
476.267	11435.88
476.372	11716.88
476.477	11448.88
476.582	11515.88
476.687	11545.88
476.793	11636.88
476.898	11677.88
477.003	11778.88
477.108	11941.88
477.213	11886.88
477.318	12011.88
477.423	12212.88
477.528	12324.88
477.633	12390.88
477.738	12728.88
477.843	12611.88
477.948	12911.88
478.053	12966.88
478.158	13006.88
478.263	13051.88
478.368	13292.88
478.473	13371.88
478.578	13395.88
478.682	13531.88
478.787	13631.88
478.892	13529.88
478.997	13758.88
479.102	13669.88
479.207	13591.88
479.312	13821.88
479.417	13635.88
479.521	13809.88
479.626	14018.88
479.731	14109.88
479.836	14170.88
479.941	14476.88
480.045	14582.88
480.15	14582.88
480.255	14582.88
480.36	14582.88
480.465	14582.88
480.569	14582.88
480.674	14582.88
480.779	14387.88
480.883	14253.88
480.988	14175.88
481.093	14249.88
481.197	13860.88
481.302	13982.88
481.407	13877.88
481.511	14582.88
481.616	14049.88
481.721	13885.88
481.825	14074.88
481.93	13696.88
482.035	13806.88
482.139	13915.88
482.244	13920.88
482.348	13922.88
482.453	14006.88
482.557	14097.88
482.662	14200.88
482.767	14198.88
482.871	14189.88
482.976	14331.88
483.08	14455.88
483.185	14582.88
483.289	14582.88
483.394	14582.88
483.498	14582.88
483.603	14582.88
483.707	14582.88
483.811	14582.88
483.916	14582.88
484.02	14582.88
484.125	14582.88
484.229	14582.88
484.333	14582.88
484.438	14582.88
484.542	14582.88
484.647	14582.88
484.751	14582.88
484.855	14582.88
484.96	14582.88
485.064	14582.88
485.168	14582.88
485.273	14582.88
485.377	14582.88
485.481	14582.88
485.585	14582.88
485.69	14582.88
485.794	14582.88
485.898	14582.88
486.002	14582.88
486.107	14582.88
486.211	14582.88
486.315	14582.88
486.419	14582.88
486.524	14582.88
486.628	14582.88
486.732	14582.88
486.836	14582.88
486.94	14582.88
487.044	14582.88
487.148	14582.88
487.253	14582.88
487.357	14582.88
487.461	14582.88
487.565	14582.88
487.669	14582.88
487.773	14582.88
487.877	14582.88
487.981	14582.88
488.085	14582.88
488.189	14582.88
488.293	14582.88
488.397	14582.88
488.501	14582.88
488.605	14582.88
488.709	14582.88
488.813	14582.88
488.917	14582.88
489.021	14582.88
489.125	14582.88
489.229	14582.88
489.333	14582.88
489.437	14582.88
489.541	14582.88
489.645	14582.88
489.749	14582.88
489.853	14582.88
489.956	14582.88
490.06	14582.88
490.164	14582.88
490.268	14582.88
490.372	14582.88
490.476	14582.88
490.579	14582.88
490.683	14582.88
490.787	14582.88
490.891	14582.88
490.995	14582.88
491.098	14582.88
491.202	14582.88
491.306	14582.88
491.41	14582.88
491.513	14582.88
491.617	14582.88
491.721	14582.88
491.824	14582.88
491.928	14582.88
492.032	14582.88
492.136	14582.88
492.239	14582.88
492.343	14582.88
492.446	14582.88
492.55	14582.88
492.654	14582.88
492.757	14582.88
492.861	14582.88
492.965	14582.88
493.068	14582.88
493.172	14582.88
493.275	14582.88
493.379	14582.88
493.482	14582.88
493.586	14582.88
493.689	14582.88
493.793	14582.88
493.896	14582.88
494	14582.88
494.103	14582.88
494.207	14582.88
494.31	14582.88
494.414	14582.88
494.517	14582.88
494.621	14582.88
494.724	14582.88
494.828	14582.88
494.931	14582.88
495.034	14582.88
495.138	14582.88
495.241	14582.88
495.345	14582.88
495.448	14582.88
495.551	14582.88
495.655	14582.88
495.758	14582.88
495.861	14582.88
495.965	14582.88
496.068	14582.88
496.171	14582.88
496.274	14582.88
496.378	14582.88
496.481	14582.88
496.584	14582.88
496.687	14582.88
496.791	14582.88
496.894	14582.88
496.997	14582.88
497.1	14582.88
497.204	14582.88
497.307	14582.88
497.41	14582.88
497.513	14582.88
497.616	14582.88
497.719	14582.88
497.823	14582.88
497.926	14582.88
498.029	14582.88
498.132	14582.88
498.235	14582.88
498.338	14582.88
498.441	14582.88
498.544	14582.88
498.647	14582.88
498.75	14582.88
498.853	14582.88
498.956	14582.88
499.059	14582.88
499.163	14582.88
499.266	14582.88
499.369	14582.88
499.471	14582.88
499.574	14582.88
499.677	14582.88
499.78	14582.88
499.883	14582.88
499.986	14582.88
500.089	14582.88
500.192	14582.88
500.295	14582.88
500.398	14582.88
500.501	14582.88
500.604	14582.88
500.707	14582.88
500.809	14582.88
500.912	14582.88
501.015	14582.88
501.118	14582.88
501.221	14582.88
501.324	14582.88
501.426	14582.88
501.529	14582.88
501.632	14582.88
501.735	14582.88
501.837	14582.88
501.94	14582.88
502.043	14582.88
502.146	14582.88
502.248	14582.88
502.351	14582.88
502.454	14582.88
502.557	14582.88
502.659	14582.88
502.762	14582.88
502.865	14582.88
502.967	14582.88
503.07	14582.88
503.173	14582.88
503.275	14582.88
503.378	14582.88
503.48	14582.88
503.583	14582.88
503.686	14582.88
503.788	14582.88
503.891	14582.88
503.993	14582.88
504.096	14582.88
504.198	14582.88
504.301	14582.88
504.403	14582.88
504.506	14582.88
504.608	14582.88
504.711	14582.88
504.813	14582.88
504.916	14582.88
505.018	14309.88
505.121	14008.88
505.223	13876.88
505.326	13727.88
505.428	13585.88
505.531	13200.88
505.633	13193.88
505.735	13049.88
505.838	12852.88
505.94	12831.88
506.042	12756.88
506.145	12538.88
506.247	12492.88
506.35	12388.88
506.452	12316.88
506.554	12183.88
506.656	12338.88
506.759	12282.88
506.861	12060.88
506.963	12024.88
507.066	11978.88
507.168	12050.88
507.27	11867.88
507.372	11822.88
507.475	11763.88
507.577	11782.88
507.679	11755.88
507.781	11460.88
507.883	11508.88
507.986	11516.88
508.088	11510.88
508.19	11418.88
508.292	11427.88
508.394	11285.88
508.496	11257.88
508.598	11220.88
508.701	11317.88
508.803	11164.88
508.905	11177.88
509.007	11251.88
509.109	11137.88
509.211	11175.88
509.313	11084.88
509.415	11063.88
509.517	10900.88
509.619	10902.88
509.721	11081.88
509.823	10966.88
509.925	11116.88
510.027	10840.88
510.129	10897.88
510.231	11009.88
510.333	10804.88
510.435	10847.88
510.537	10923.88
510.639	10918.88
510.741	10970.88
510.843	10826.88
510.945	10816.88
511.047	10923.88
511.148	10848.88
511.25	10956.88
511.352	10920.88
511.454	10677.88
511.556	10793.88
511.658	10809.88
511.76	10809.88
511.861	11096.88
511.963	10916.88
512.065	11037.88
512.167	10774.88
512.268	11139.88
512.37	10994.88
512.472	10904.88
512.574	11008.88
512.676	11003.88
512.777	10940.88
512.879	10892.88
512.981	10960.88
513.082	11007.88
513.184	10930.88
513.286	11497.88
513.387	11230.88
513.489	11224.88
513.591	11226.88
513.692	11264.88
513.794	11072.88
513.896	11002.88
513.997	11177.88
514.099	11419.88
514.2	11357.88
514.302	11462.88
514.404	11384.88
514.505	11501.88
514.607	11648.88
514.708	11649.88
514.81	11717.88
514.911	11851.88
515.013	12021.88
515.114	11985.88
515.216	11932.88
515.317	12189.88
515.419	12131.88
515.52	12300.88
515.622	12233.88
515.723	12577.88
515.825	12865.88
515.926	12968.88
516.027	12920.88
516.129	13001.88
516.23	13373.88
516.332	13538.88
516.433	13707.88
516.534	13969.88
516.636	14227.88
516.737	14500.88
516.838	14582.88
516.94	14582.88
517.041	14582.88
517.142	14582.88
517.244	14582.88
517.345	14582.88
517.446	14582.88
517.547	14582.88
517.649	14582.88
517.75	14582.88
517.851	14582.88
517.952	14582.88
518.054	14582.88
518.155	14582.88
518.256	14582.88
518.357	14582.88
518.458	14582.88
518.56	14582.88
518.661	14582.88
518.762	14420.88
518.863	14393.88
518.964	14251.88
519.065	14026.88
519.166	13781.88
519.268	13585.88
519.369	13742.88
519.47	13375.88
519.571	13268.88
519.672	13310.88
519.773	13145.88
519.874	13053.88
519.975	13102.88
520.076	12932.88
520.177	13039.88
520.278	12864.88
520.379	12859.88
520.48	12731.88
520.581	12587.88
520.682	12625.88
520.783	12499.88
520.884	12682.88
520.985	12663.88
521.086	12554.88
521.187	12538.88
521.288	12365.88
521.389	12613.88
521.489	12373.88
521.59	12470.88
521.691	12473.88
521.792	12476.88
521.893	12481.88
521.994	12566.88
522.095	12392.88
522.195	12509.88
522.296	12550.88
522.397	12458.88
522.498	12346.88
522.599	12269.88
522.699	12194.88
522.8	12170.88
522.901	12338.88
523.002	12285.88
523.102	12394.88
523.203	12334.88
523.304	12554.88
523.405	12238.88
523.505	12423.88
523.606	12334.88
523.707	12504.88
523.807	12299.88
523.908	12419.88
524.009	12422.88
524.109	12245.88
524.21	12296.88
524.31	12240.88
524.411	12443.88
524.512	12492.88
524.612	12373.88
524.713	12577.88
524.813	12308.88
524.914	12628.88
525.014	14582.88
525.115	12732.88
525.216	12287.88
525.316	12400.88
525.417	12273.88
525.517	12396.88
525.618	12379.88
525.718	12237.88
525.819	12302.88
525.919	12412.88
526.019	12311.88
526.12	12380.88
526.22	12381.88
526.321	12301.88
526.421	12167.88
526.522	12354.88
526.622	12369.88
526.722	12339.88
526.823	12497.88
526.923	12408.88
527.023	12538.88
527.124	12340.88
527.224	12429.88
527.324	12230.88
527.425	12172.88
527.525	12180.88
527.625	12135.88
527.726	12256.88
527.826	12542.88
527.926	12273.88
528.026	12256.88
528.127	12133.88
528.227	12369.88
528.327	12382.88
528.427	12348.88
528.528	12294.88
528.628	12346.88
528.728	12195.88
528.828	12349.88
528.928	12252.88
529.029	12125.88
529.129	12219.88
529.229	12174.88
529.329	12116.88
529.429	12300.88
529.529	12231.88
529.629	12188.88
529.729	12111.88
529.829	12365.88
529.93	12104.88
530.03	12214.88
530.13	12134.88
530.23	11944.88
530.33	12051.88
530.43	11977.88
530.53	12072.88
530.63	11981.88
530.73	11956.88
530.83	11784.88
530.93	11966.88
531.03	11922.88
531.13	11987.88
531.23	11903.88
531.33	12065.88
531.429	12101.88
531.529	12154.88
531.629	11977.88
531.729	11867.88
