Data from 42g_HRC06701__42__529.txt Node

Date: Thu Apr 18 02:42:45 CDT 2024
User: Estudiantes 2
Spectrometer: HR+C0670
Trigger mode: 4
Integration Time (sec): 1.000000E0
Scans to average: 1
Electric dark correction enabled: true
Nonlinearity correction enabled: false
Boxcar width: 0
XAxis mode: Wavelengths
Number of Pixels in Spectrum: 2048
>>>>>Begin Spectral Data<<<<<
407.81	-103.38
407.921	-103.38
408.032	-103.38
408.143	-155.38
408.254	-157.38
408.365	53.62
408.476	287.62
408.587	5.62
408.699	-13.38
408.81	-57.38
408.921	-75.38
409.032	-31.38
409.143	75.62
409.254	22.62
409.365	94.62
409.476	-6.38
409.587	-19.38
409.698	79.62
409.809	129.62
409.92	-20.38
410.031	-46.38
410.142	43.62
410.253	35.62
410.364	40.62
410.475	-38.38
410.585	73.62
410.696	22.62
410.807	-14.38
410.918	65.62
411.029	64.62
411.14	39.62
411.251	43.62
411.362	59.62
411.472	59.62
411.583	80.62
411.694	103.62
411.805	4.62
411.916	6.62
412.026	112.62
412.137	12.62
412.248	11.62
412.359	78.62
412.47	-3.38
412.58	4.62
412.691	76.62
412.802	57.62
412.912	47.62
413.023	45.62
413.134	55.62
413.245	80.62
413.355	53.62
413.466	44.62
413.577	29.62
413.687	113.62
413.798	53.62
413.909	69.62
414.019	52.62
414.13	56.62
414.24	-19.38
414.351	43.62
414.462	214.62
414.572	76.62
414.683	62.62
414.793	34.62
414.904	404.62
415.014	43.62
415.125	-27.38
415.235	80.62
415.346	104.62
415.456	174.62
415.567	94.62
415.677	67.62
415.788	60.62
415.898	49.62
416.009	41.62
416.119	86.62
416.23	29.62
416.34	16.62
416.45	36.62
416.561	850.62
416.671	205.62
416.782	-32.38
416.892	-22.38
417.002	81.62
417.113	140.62
417.223	15.62
417.333	-0.38
417.444	54.62
417.554	69.62
417.664	54.62
417.775	11.62
417.885	13.62
417.995	46.62
418.106	176.62
418.216	53.62
418.326	48.62
418.436	47.62
418.547	16.62
418.657	-32.38
418.767	118.62
418.877	38.62
418.987	4.62
419.098	29.62
419.208	72.62
419.318	85.62
419.428	56.62
419.538	23.62
419.648	29.62
419.759	74.62
419.869	124.62
419.979	18.62
420.089	32.62
420.199	24.62
420.309	80.62
420.419	69.62
420.529	60.62
420.639	630.62
420.749	104.62
420.859	116.62
420.969	67.62
421.079	264.62
421.189	129.62
421.299	111.62
421.409	21.62
421.519	143.62
421.629	120.62
421.739	61.62
421.849	-1.38
421.959	-27.38
422.069	137.62
422.179	28.62
422.289	-19.38
422.399	70.62
422.509	106.62
422.619	3668.62
422.729	438.62
422.838	-27.38
422.948	36.62
423.058	-3.38
423.168	41.62
423.278	-8.38
423.388	64.62
423.498	129.62
423.607	24.62
423.717	352.62
423.827	372.62
423.937	38.62
424.046	119.62
424.156	128.62
424.266	50.62
424.376	239.62
424.485	226.62
424.595	65.62
424.705	-18.38
424.815	20.62
424.924	494.62
425.034	107.62
425.144	-15.38
425.253	74.62
425.363	80.62
425.473	86.62
425.582	23.62
425.692	60.62
425.801	-18.38
425.911	133.62
426.021	107.62
426.13	148.62
426.24	244.62
426.349	192.62
426.459	65.62
426.568	-2.38
426.678	225.62
426.787	56.62
426.897	-1.38
427.006	72.62
427.116	113.62
427.225	30.62
427.335	105.62
427.444	64.62
427.554	96.62
427.663	43.62
427.773	60.62
427.882	86.62
427.992	23.62
428.101	63.62
428.21	27.62
428.32	43.62
428.429	2.62
428.539	310.62
428.648	48.62
428.757	119.62
428.867	115.62
428.976	156.62
429.085	87.62
429.195	66.62
429.304	24.62
429.413	84.62
429.523	150.62
429.632	110.62
429.741	36.62
429.85	59.62
429.96	82.62
430.069	-15.38
430.178	10.62
430.287	368.62
430.397	65.62
430.506	58.62
430.615	61.62
430.724	73.62
430.833	66.62
430.943	75.62
431.052	80.62
431.161	-7.38
431.27	45.62
431.379	18.62
431.488	129.62
431.597	112.62
431.706	148.62
431.816	26.62
431.925	30.62
432.034	62.62
432.143	80.62
432.252	44.62
432.361	191.62
432.47	73.62
432.579	15.62
432.688	67.62
432.797	100.62
432.906	20.62
433.015	75.62
433.124	503.62
433.233	123.62
433.342	137.62
433.451	79.62
433.56	20.62
433.669	49.62
433.778	79.62
433.886	73.62
433.995	11.62
434.104	191.62
434.213	89.62
434.322	24.62
434.431	158.62
434.54	76.62
434.649	205.62
434.757	63.62
434.866	59.62
434.975	102.62
435.084	149.62
435.193	133.62
435.301	345.62
435.41	467.62
435.519	588.62
435.628	149.62
435.737	37.62
435.845	21.62
435.954	36.62
436.063	85.62
436.171	66.62
436.28	163.62
436.389	181.62
436.498	63.62
436.606	77.62
436.715	248.62
436.823	59.62
436.932	42.62
437.041	102.62
437.149	114.62
437.258	68.62
437.367	82.62
437.475	15.62
437.584	293.62
437.692	132.62
437.801	1611.62
437.91	264.62
438.018	46.62
438.127	23.62
438.235	163.62
438.344	28.62
438.452	137.62
438.561	-12.38
438.669	29.62
438.778	44.62
438.886	46.62
438.995	23.62
439.103	44.62
439.212	18.62
439.32	16.62
439.428	62.62
439.537	61.62
439.645	88.62
439.754	87.62
439.862	69.62
439.97	53.62
440.079	38.62
440.187	27.62
440.295	164.62
440.404	25.62
440.512	88.62
440.62	85.62
440.729	102.62
440.837	157.62
440.945	734.62
441.054	159.62
441.162	57.62
441.27	159.62
441.378	8.62
441.487	47.62
441.595	460.62
441.703	149.62
441.811	99.62
441.92	79.62
442.028	15.62
442.136	64.62
442.244	113.62
442.352	80.62
442.461	-11.38
442.569	7.62
442.677	70.62
442.785	90.62
442.893	30.62
443.001	67.62
443.109	-27.38
443.217	5.62
443.325	43.62
443.434	534.62
443.542	215.62
443.65	51.62
443.758	179.62
443.866	45.62
443.974	350.62
444.082	144.62
444.19	52.62
444.298	46.62
444.406	174.62
444.514	36.62
444.622	101.62
444.73	128.62
444.838	38.62
444.946	106.62
445.054	62.62
445.161	52.62
445.269	32.62
445.377	104.62
445.485	178.62
445.593	72.62
445.701	287.62
445.809	189.62
445.917	99.62
446.025	29.62
446.132	192.62
446.24	149.62
446.348	75.62
446.456	-1.38
446.564	45.62
446.671	54.62
446.779	46.62
446.887	83.62
446.995	80.62
447.102	85.62
447.21	170.62
447.318	56.62
447.426	41.62
447.533	324.62
447.641	1392.62
447.749	228.62
447.856	69.62
447.964	99.62
448.072	167.62
448.179	41.62
448.287	147.62
448.395	131.62
448.502	43.62
448.61	109.62
448.718	55.62
448.825	116.62
448.933	114.62
449.04	33.62
449.148	45.62
449.256	56.62
449.363	75.62
449.471	83.62
449.578	127.62
449.686	59.62
449.793	139.62
449.901	72.62
450.008	86.62
450.116	82.62
450.223	22.62
450.331	144.62
450.438	69.62
450.546	88.62
450.653	153.62
450.76	113.62
450.868	96.62
450.975	295.62
451.083	96.62
451.19	133.62
451.297	80.62
451.405	161.62
451.512	69.62
451.619	202.62
451.727	184.62
451.834	79.62
451.941	60.62
452.049	57.62
452.156	134.62
452.263	98.62
452.371	57.62
452.478	170.62
452.585	230.62
452.692	53.62
452.8	125.62
452.907	251.62
453.014	158.62
453.121	93.62
453.229	152.62
453.336	136.62
453.443	171.62
453.55	73.62
453.657	116.62
453.765	166.62
453.872	152.62
453.979	151.62
454.086	110.62
454.193	149.62
454.3	64.62
454.407	217.62
454.514	243.62
454.621	99.62
454.729	86.62
454.836	97.62
454.943	128.62
455.05	161.62
455.157	219.62
455.264	135.62
455.371	161.62
455.478	115.62
455.585	1428.62
455.692	277.62
455.799	254.62
455.906	114.62
456.013	86.62
456.12	54.62
456.227	105.62
456.334	150.62
456.44	215.62
456.547	133.62
456.654	128.62
456.761	112.62
456.868	185.62
456.975	190.62
457.082	79.62
457.189	78.62
457.296	119.62
457.402	129.62
457.509	44.62
457.616	129.62
457.723	297.62
457.83	103.62
457.936	76.62
458.043	406.62
458.15	87.62
458.257	189.62
458.363	183.62
458.47	93.62
458.577	140.62
458.684	68.62
458.79	173.62
458.897	134.62
459.004	143.62
459.11	129.62
459.217	116.62
459.324	159.62
459.43	285.62
459.537	366.62
459.644	137.62
459.75	70.62
459.857	467.62
459.964	129.62
460.07	188.62
460.177	147.62
460.283	220.62
460.39	223.62
460.496	206.62
460.603	158.62
460.71	115.62
460.816	120.62
460.923	119.62
461.029	173.62
461.136	182.62
461.242	164.62
461.349	149.62
461.455	101.62
461.562	495.62
461.668	217.62
461.774	140.62
461.881	242.62
461.987	148.62
462.094	159.62
462.2	205.62
462.307	171.62
462.413	111.62
462.519	95.62
462.626	225.62
462.732	134.62
462.838	182.62
462.945	237.62
463.051	127.62
463.157	127.62
463.264	208.62
463.37	179.62
463.476	182.62
463.583	192.62
463.689	82.62
463.795	111.62
463.901	208.62
464.008	237.62
464.114	118.62
464.22	110.62
464.326	192.62
464.433	101.62
464.539	126.62
464.645	144.62
464.751	325.62
464.857	178.62
464.963	139.62
465.07	188.62
465.176	173.62
465.282	176.62
465.388	312.62
465.494	70.62
465.6	130.62
465.706	131.62
465.812	79.62
465.918	200.62
466.024	141.62
466.131	144.62
466.237	110.62
466.343	69.62
466.449	57.62
466.555	94.62
466.661	99.62
466.767	121.62
466.873	78.62
466.979	284.62
467.085	135.62
467.191	94.62
467.296	75.62
467.402	127.62
467.508	157.62
467.614	286.62
467.72	138.62
467.826	53.62
467.932	128.62
468.038	93.62
468.144	104.62
468.25	96.62
468.355	35.62
468.461	149.62
468.567	33.62
468.673	115.62
468.779	158.62
468.885	86.62
468.99	60.62
469.096	107.62
469.202	172.62
469.308	135.62
469.413	153.62
469.519	137.62
469.625	79.62
469.731	122.62
469.836	113.62
469.942	264.62
470.048	129.62
470.153	160.62
470.259	110.62
470.365	224.62
470.47	207.62
470.576	130.62
470.682	136.62
470.787	104.62
470.893	69.62
470.999	124.62
471.104	172.62
471.21	133.62
471.315	-32.38
471.421	54.62
471.527	317.62
471.632	156.62
471.738	139.62
471.843	113.62
471.949	154.62
472.054	140.62
472.16	94.62
472.265	134.62
472.371	48.62
472.476	147.62
472.582	263.62
472.687	84.62
472.793	53.62
472.898	117.62
473.003	64.62
473.109	45.62
473.214	54.62
473.32	85.62
473.425	160.62
473.53	102.62
473.636	112.62
473.741	42.62
473.847	59.62
473.952	151.62
474.057	142.62
474.163	155.62
474.268	102.62
474.373	158.62
474.478	23.62
474.584	42.62
474.689	151.62
474.794	82.62
474.9	368.62
475.005	141.62
475.11	243.62
475.215	61.62
475.321	155.62
475.426	257.62
475.531	265.62
475.636	124.62
475.741	43.62
475.846	225.62
475.952	340.62
476.057	164.62
476.162	190.62
476.267	232.62
476.372	372.62
476.477	119.62
476.582	193.62
476.687	112.62
476.793	94.62
476.898	101.62
477.003	156.62
477.108	76.62
477.213	45.62
477.318	91.62
477.423	155.62
477.528	152.62
477.633	190.62
477.738	148.62
477.843	67.62
477.948	83.62
478.053	123.62
478.158	53.62
478.263	132.62
478.368	130.62
478.473	200.62
478.578	155.62
478.682	63.62
478.787	137.62
478.892	102.62
478.997	191.62
479.102	133.62
479.207	67.62
479.312	240.62
479.417	181.62
479.521	55.62
479.626	189.62
479.731	184.62
479.836	89.62
479.941	230.62
480.045	220.62
480.15	160.62
480.255	105.62
480.36	28.62
480.465	191.62
480.569	287.62
480.674	116.62
480.779	128.62
480.883	32.62
480.988	118.62
481.093	135.62
481.197	138.62
481.302	116.62
481.407	210.62
481.511	2025.62
481.616	289.62
481.721	147.62
481.825	381.62
481.93	83.62
482.035	79.62
482.139	239.62
482.244	142.62
482.348	120.62
482.453	148.62
482.557	187.62
482.662	148.62
482.767	84.62
482.871	106.62
482.976	57.62
483.08	104.62
483.185	319.62
483.289	93.62
483.394	95.62
483.498	186.62
483.603	97.62
483.707	150.62
483.811	205.62
483.916	206.62
484.02	134.62
484.125	240.62
484.229	171.62
484.333	215.62
484.438	101.62
484.542	148.62
484.647	44.62
484.751	83.62
484.855	146.62
484.96	127.62
485.064	165.62
485.168	142.62
485.273	113.62
485.377	116.62
485.481	334.62
485.585	148.62
485.69	101.62
485.794	150.62
485.898	183.62
486.002	76.62
486.107	101.62
486.211	143.62
486.315	142.62
486.419	230.62
486.524	207.62
486.628	119.62
486.732	99.62
486.836	153.62
486.94	261.62
487.044	105.62
487.148	95.62
487.253	160.62
487.357	123.62
487.461	311.62
487.565	208.62
487.669	129.62
487.773	131.62
487.877	269.62
487.981	207.62
488.085	199.62
488.189	158.62
488.293	323.62
488.397	635.62
488.501	223.62
488.605	197.62
488.709	141.62
488.813	114.62
488.917	146.62
489.021	133.62
489.125	445.62
489.229	207.62
489.333	330.62
489.437	250.62
489.541	183.62
489.645	198.62
489.749	159.62
489.853	185.62
489.956	172.62
490.06	190.62
490.164	171.62
490.268	191.62
490.372	155.62
490.476	155.62
490.579	147.62
490.683	812.62
490.787	299.62
490.891	191.62
490.995	219.62
491.098	170.62
491.202	175.62
491.306	287.62
491.41	203.62
491.513	131.62
491.617	241.62
491.721	329.62
491.824	483.62
491.928	237.62
492.032	463.62
492.136	187.62
492.239	140.62
492.343	219.62
492.446	573.62
492.55	266.62
492.654	183.62
492.757	138.62
492.861	237.62
492.965	210.62
493.068	180.62
493.172	126.62
493.275	145.62
493.379	158.62
493.482	289.62
493.586	292.62
493.689	454.62
493.793	168.62
493.896	255.62
494	276.62
494.103	244.62
494.207	509.62
494.31	552.62
494.414	287.62
494.517	196.62
494.621	126.62
494.724	217.62
494.828	149.62
494.931	147.62
495.034	189.62
495.138	351.62
495.241	173.62
495.345	1031.62
495.448	348.62
495.551	193.62
495.655	188.62
495.758	150.62
495.861	110.62
495.965	144.62
496.068	229.62
496.171	268.62
496.274	171.62
496.378	236.62
496.481	200.62
496.584	199.62
496.687	256.62
496.791	219.62
496.894	253.62
496.997	171.62
497.1	214.62
497.204	196.62
497.307	109.62
497.41	358.62
497.513	360.62
497.616	168.62
497.719	172.62
497.823	127.62
497.926	126.62
498.029	220.62
498.132	189.62
498.235	158.62
498.338	196.62
498.441	283.62
498.544	141.62
498.647	197.62
498.75	334.62
498.853	342.62
498.956	199.62
499.059	426.62
499.163	195.62
499.266	188.62
499.369	243.62
499.471	185.62
499.574	287.62
499.677	230.62
499.78	220.62
499.883	146.62
499.986	239.62
500.089	200.62
500.192	204.62
500.295	191.62
500.398	217.62
500.501	224.62
500.604	136.62
500.707	180.62
500.809	191.62
500.912	346.62
501.015	325.62
501.118	256.62
501.221	294.62
501.324	202.62
501.426	263.62
501.529	199.62
501.632	211.62
501.735	210.62
501.837	135.62
501.94	168.62
502.043	161.62
502.146	204.62
502.248	200.62
502.351	162.62
502.454	178.62
502.557	116.62
502.659	203.62
502.762	150.62
502.865	126.62
502.967	132.62
503.07	210.62
503.173	234.62
503.275	189.62
503.378	197.62
503.48	157.62
503.583	217.62
503.686	223.62
503.788	446.62
503.891	190.62
503.993	342.62
504.096	202.62
504.198	164.62
504.301	104.62
504.403	200.62
504.506	142.62
504.608	140.62
504.711	169.62
504.813	227.62
504.916	219.62
505.018	172.62
505.121	151.62
505.223	193.62
505.326	139.62
505.428	325.62
505.531	179.62
505.633	170.62
505.735	151.62
505.838	135.62
505.94	169.62
506.042	114.62
506.145	60.62
506.247	230.62
506.35	113.62
506.452	248.62
506.554	213.62
506.656	174.62
506.759	174.62
506.861	188.62
506.963	149.62
507.066	220.62
507.168	239.62
507.27	143.62
507.372	127.62
507.475	113.62
507.577	186.62
507.679	120.62
507.781	129.62
507.883	112.62
507.986	100.62
508.088	175.62
508.19	175.62
508.292	201.62
508.394	175.62
508.496	99.62
508.598	96.62
508.701	160.62
508.803	145.62
508.905	105.62
509.007	141.62
509.109	261.62
509.211	196.62
509.313	111.62
509.415	113.62
509.517	149.62
509.619	124.62
509.721	223.62
509.823	99.62
509.925	251.62
510.027	187.62
510.129	178.62
510.231	139.62
510.333	99.62
510.435	139.62
510.537	137.62
510.639	202.62
510.741	179.62
510.843	222.62
510.945	157.62
511.047	243.62
511.148	177.62
511.25	101.62
511.352	153.62
511.454	100.62
511.556	179.62
511.658	157.62
511.76	240.62
511.861	243.62
511.963	120.62
512.065	125.62
512.167	112.62
512.268	320.62
512.37	215.62
512.472	113.62
512.574	193.62
512.676	216.62
512.777	118.62
512.879	79.62
512.981	98.62
513.082	198.62
513.184	126.62
513.286	594.62
513.387	289.62
513.489	283.62
513.591	222.62
513.692	286.62
513.794	158.62
513.896	63.62
513.997	147.62
514.099	76.62
514.2	148.62
514.302	164.62
514.404	165.62
514.505	64.62
514.607	185.62
514.708	164.62
514.81	190.62
514.911	184.62
515.013	258.62
515.114	212.62
515.216	131.62
515.317	171.62
515.419	135.62
515.52	172.62
515.622	152.62
515.723	217.62
515.825	216.62
515.926	165.62
516.027	172.62
516.129	94.62
516.23	126.62
516.332	172.62
516.433	180.62
516.534	212.62
516.636	140.62
516.737	128.62
516.838	1163.62
516.94	303.62
517.041	216.62
517.142	238.62
517.244	284.62
517.345	206.62
517.446	184.62
517.547	211.62
517.649	160.62
517.75	201.62
517.851	133.62
517.952	473.62
518.054	231.62
518.155	288.62
518.256	182.62
518.357	391.62
518.458	146.62
518.56	146.62
518.661	215.62
518.762	164.62
518.863	278.62
518.964	288.62
519.065	141.62
519.166	157.62
519.268	123.62
519.369	444.62
519.47	196.62
519.571	217.62
519.672	146.62
519.773	134.62
519.874	231.62
519.975	242.62
520.076	171.62
520.177	270.62
520.278	235.62
520.379	235.62
520.48	74.62
520.581	141.62
520.682	160.62
520.783	136.62
520.884	238.62
520.985	288.62
521.086	187.62
521.187	263.62
521.288	259.62
521.389	235.62
521.489	200.62
521.59	163.62
521.691	237.62
521.792	140.62
521.893	316.62
521.994	399.62
522.095	254.62
522.195	281.62
522.296	373.62
522.397	284.62
522.498	218.62
522.599	159.62
522.699	184.62
522.8	233.62
522.901	316.62
523.002	258.62
523.102	397.62
523.203	226.62
523.304	421.62
523.405	177.62
523.505	213.62
523.606	265.62
523.707	266.62
523.807	251.62
523.908	232.62
524.009	366.62
524.109	254.62
524.21	217.62
524.31	327.62
524.411	348.62
524.512	343.62
524.612	318.62
524.713	393.62
524.813	239.62
524.914	532.62
525.014	6348.62
525.115	812.62
525.216	196.62
525.316	219.62
525.417	216.62
525.517	203.62
525.618	223.62
525.718	184.62
525.819	161.62
525.919	293.62
526.019	220.62
526.12	288.62
526.22	201.62
526.321	171.62
526.421	111.62
526.522	205.62
526.622	148.62
526.722	151.62
526.823	275.62
526.923	275.62
527.023	300.62
527.124	198.62
527.224	366.62
527.324	135.62
527.425	223.62
527.525	158.62
527.625	177.62
527.726	201.62
527.826	343.62
527.926	182.62
528.026	231.62
528.127	193.62
528.227	223.62
528.327	298.62
528.427	231.62
528.528	259.62
528.628	297.62
528.728	244.62
528.828	331.62
528.928	305.62
529.029	216.62
529.129	311.62
529.229	278.62
529.329	228.62
529.429	315.62
529.529	408.62
529.629	305.62
529.729	239.62
529.829	438.62
529.93	228.62
530.03	317.62
530.13	288.62
530.23	262.62
530.33	355.62
530.43	225.62
530.53	264.62
530.63	252.62
530.73	187.62
530.83	184.62
530.93	171.62
531.03	151.62
531.13	338.62
531.23	145.62
531.33	241.62
531.429	337.62
531.529	392.62
531.629	257.62
531.729	178.62
531.829	149.62
531.929	135.62
532.029	223.62
532.129	237.62
532.229	251.62
532.328	180.62
532.428	221.62
532.528	152.62
532.628	136.62
532.728	239.62
532.827	147.62
532.927	230.62
533.027	219.62
533.127	357.62
533.227	262.62
533.326	248.62
533.426	193.62
533.526	298.62
533.625	380.62
533.725	553.62
533.825	295.62
533.924	149.62
534.024	177.62
534.124	162.62
534.223	225.62
534.323	605.62
534.423	263.62
534.522	225.62
534.622	156.62
534.722	223.62
534.821	226.62
534.921	159.62
535.02	182.62
535.12	276.62
535.219	327.62
535.319	304.62
535.419	283.62
535.518	172.62
535.618	243.62
535.717	327.62
535.817	118.62
535.916	111.62
536.016	293.62
536.115	184.62
536.215	157.62
536.314	196.62
536.413	103.62
536.513	177.62
536.612	204.62
536.712	114.62
536.811	116.62
536.91	116.62
537.01	130.62
537.109	233.62
537.209	182.62
537.308	207.62
537.407	181.62
537.507	159.62
537.606	178.62
537.705	242.62
537.805	202.62
537.904	180.62
538.003	204.62
538.102	289.62
538.202	220.62
538.301	293.62
538.4	287.62
538.499	206.62
538.599	268.62
538.698	428.62
538.797	209.62
538.896	328.62
538.995	244.62
539.095	184.62
539.194	393.62
539.293	187.62
539.392	188.62
539.491	212.62
539.59	231.62
539.689	280.62
539.789	324.62
539.888	156.62
539.987	106.62
540.086	172.62
540.185	209.62
540.284	232.62
540.383	207.62
540.482	157.62
540.581	205.62
540.68	184.62
540.779	243.62
540.878	256.62
540.977	235.62
541.076	204.62
541.175	283.62
541.274	434.62
541.373	313.62
541.472	311.62
541.571	156.62
541.67	1571.62
541.769	451.62
541.868	284.62
541.966	271.62
542.065	225.62
542.164	300.62
542.263	199.62
542.362	217.62
542.461	368.62
542.56	283.62
542.658	260.62
542.757	217.62
542.856	156.62
542.955	187.62
543.054	159.62
543.152	373.62
543.251	193.62
543.35	347.62
543.449	301.62
543.547	226.62
543.646	177.62
543.745	295.62
543.843	299.62
543.942	288.62
544.041	280.62
544.14	262.62
544.238	215.62
544.337	459.62
544.436	307.62
544.534	363.62
544.633	271.62
544.731	291.62
544.83	248.62
544.929	246.62
545.027	285.62
545.126	214.62
545.224	320.62
545.323	225.62
545.421	214.62
545.52	239.62
545.619	251.62
545.717	273.62
545.816	317.62
545.914	320.62
546.013	501.62
546.111	399.62
546.209	228.62
546.308	270.62
546.406	215.62
546.505	402.62
546.603	332.62
546.702	234.62
546.8	188.62
546.899	241.62
546.997	317.62
547.095	267.62
547.194	299.62
547.292	327.62
547.39	333.62
547.489	282.62
547.587	575.62
547.685	240.62
547.784	490.62
547.882	366.62
547.98	204.62
548.079	309.62
548.177	226.62
