Data from 42g_HRC06701__23__510.txt Node

Date: Thu Apr 18 02:42:26 CDT 2024
User: Estudiantes 2
Spectrometer: HR+C0670
Trigger mode: 4
Integration Time (sec): 1.000000E0
Scans to average: 1
Electric dark correction enabled: true
Nonlinearity correction enabled: false
Boxcar width: 0
XAxis mode: Wavelengths
Number of Pixels in Spectrum: 2048
>>>>>Begin Spectral Data<<<<<
407.81	-175.19
407.921	-175.19
408.032	-175.19
408.143	-137.19
408.254	-138.19
408.365	38.81
408.476	287.81
408.587	-1.19
408.699	-39.19
408.81	-0.19
408.921	-41.19
409.032	-34.19
409.143	6.81
409.254	60.81
409.365	51.81
409.476	-38.19
409.587	51.81
409.698	106.81
409.809	77.81
409.92	-26.19
410.031	1.81
410.142	57.81
410.253	7.81
410.364	70.81
410.475	49.81
410.585	518.81
410.696	622.81
410.807	554.81
410.918	522.81
411.029	654.81
411.14	605.81
411.251	541.81
411.362	614.81
411.472	648.81
411.583	597.81
411.694	628.81
411.805	603.81
411.916	555.81
412.026	651.81
412.137	631.81
412.248	609.81
412.359	546.81
412.47	525.81
412.58	531.81
412.691	601.81
412.802	583.81
412.912	609.81
413.023	521.81
413.134	560.81
413.245	702.81
413.355	550.81
413.466	516.81
413.577	590.81
413.687	640.81
413.798	482.81
413.909	640.81
414.019	599.81
414.13	587.81
414.24	534.81
414.351	694.81
414.462	721.81
414.572	655.81
414.683	675.81
414.793	569.81
414.904	957.81
415.014	586.81
415.125	565.81
415.235	576.81
415.346	697.81
415.456	740.81
415.567	582.81
415.677	598.81
415.788	644.81
415.898	535.81
416.009	548.81
416.119	679.81
416.23	541.81
416.34	533.81
416.45	652.81
416.561	1399.81
416.671	700.81
416.782	489.81
416.892	556.81
417.002	623.81
417.113	676.81
417.223	663.81
417.333	569.81
417.444	582.81
417.554	673.81
417.664	660.81
417.775	546.81
417.885	656.81
417.995	636.81
418.106	810.81
418.216	680.81
418.326	676.81
418.436	646.81
418.547	643.81
418.657	648.81
418.767	779.81
418.877	627.81
418.987	693.81
419.098	603.81
419.208	645.81
419.318	786.81
419.428	728.81
419.538	631.81
419.648	707.81
419.759	783.81
419.869	768.81
419.979	672.81
420.089	755.81
420.199	690.81
420.309	740.81
420.419	766.81
420.529	695.81
420.639	1210.81
420.749	814.81
420.859	778.81
420.969	676.81
421.079	929.81
421.189	835.81
421.299	761.81
421.409	707.81
421.519	816.81
421.629	811.81
421.739	678.81
421.849	654.81
421.959	642.81
422.069	772.81
422.179	716.81
422.289	703.81
422.399	723.81
422.509	841.81
422.619	4491.81
422.729	1103.81
422.838	665.81
422.948	851.81
423.058	765.81
423.168	811.81
423.278	782.81
423.388	845.81
423.498	861.81
423.607	867.81
423.717	1115.81
423.827	1158.81
423.937	845.81
424.046	997.81
424.156	942.81
424.266	867.81
424.376	1159.81
424.485	993.81
424.595	841.81
424.705	856.81
424.815	842.81
424.924	1280.81
425.034	943.81
425.144	849.81
425.253	904.81
425.363	940.81
425.473	1005.81
425.582	783.81
425.692	871.81
425.801	876.81
425.911	963.81
426.021	917.81
426.13	1032.81
426.24	1119.81
426.349	946.81
426.459	964.81
426.568	878.81
426.678	1000.81
426.787	912.81
426.897	903.81
427.006	875.81
427.116	949.81
427.225	948.81
427.335	988.81
427.444	919.81
427.554	1007.81
427.663	933.81
427.773	905.81
427.882	998.81
427.992	932.81
428.101	911.81
428.21	901.81
428.32	981.81
428.429	888.81
428.539	1201.81
428.648	1020.81
428.757	1002.81
428.867	978.81
428.976	1151.81
429.085	1041.81
429.195	941.81
429.304	983.81
429.413	1092.81
429.523	1047.81
429.632	985.81
429.741	1070.81
429.85	936.81
429.96	1065.81
430.069	1068.81
430.178	1017.81
430.287	1294.81
430.397	1014.81
430.506	1036.81
430.615	1009.81
430.724	1119.81
430.833	1089.81
430.943	1089.81
431.052	1110.81
431.161	1153.81
431.27	1075.81
431.379	1043.81
431.488	1317.81
431.597	1207.81
431.706	1212.81
431.816	1186.81
431.925	1151.81
432.034	1085.81
432.143	1217.81
432.252	1172.81
432.361	1229.81
432.47	1135.81
432.579	1192.81
432.688	1158.81
432.797	1172.81
432.906	1135.81
433.015	1190.81
433.124	1534.81
433.233	1233.81
433.342	1281.81
433.451	1129.81
433.56	1128.81
433.669	1200.81
433.778	1139.81
433.886	1269.81
433.995	1254.81
434.104	1331.81
434.213	1288.81
434.322	1342.81
434.431	1435.81
434.54	1365.81
434.649	1556.81
434.757	1474.81
434.866	1303.81
434.975	1444.81
435.084	1429.81
435.193	1315.81
435.301	1538.81
435.41	1681.81
435.519	1717.81
435.628	1186.81
435.737	1200.81
435.845	1141.81
435.954	1099.81
436.063	1199.81
436.171	1128.81
436.28	1130.81
436.389	1310.81
436.498	1190.81
436.606	1160.81
436.715	1295.81
436.823	1110.81
436.932	1055.81
437.041	1101.81
437.149	1137.81
437.258	1054.81
437.367	1016.81
437.475	1013.81
437.584	1321.81
437.692	1040.81
437.801	2649.81
437.91	1254.81
438.018	1038.81
438.127	1012.81
438.235	1155.81
438.344	1003.81
438.452	1029.81
438.561	991.81
438.669	992.81
438.778	977.81
438.886	1012.81
438.995	986.81
439.103	1051.81
439.212	1029.81
439.32	1055.81
439.428	1002.81
439.537	1042.81
439.645	1089.81
439.754	1043.81
439.862	1017.81
439.97	1056.81
440.079	1028.81
440.187	983.81
440.295	1176.81
440.404	1078.81
440.512	1087.81
440.62	1110.81
440.729	1180.81
440.837	1132.81
440.945	1817.81
441.054	1289.81
441.162	1125.81
441.27	1272.81
441.378	1243.81
441.487	1263.81
441.595	1562.81
441.703	1356.81
441.811	1247.81
441.92	1143.81
442.028	1085.81
442.136	1234.81
442.244	1201.81
442.352	1166.81
442.461	1092.81
442.569	1018.81
442.677	1150.81
442.785	1236.81
442.893	1163.81
443.001	1038.81
443.109	1029.81
443.217	1121.81
443.325	1101.81
443.434	1705.81
443.542	1408.81
443.65	1208.81
443.758	1337.81
443.866	1217.81
443.974	1481.81
444.082	1318.81
444.19	1343.81
444.298	1357.81
444.406	1414.81
444.514	1411.81
444.622	1538.81
444.73	1500.81
444.838	1414.81
444.946	1453.81
445.054	1282.81
445.161	1254.81
445.269	1252.81
445.377	1282.81
445.485	1228.81
445.593	1295.81
445.701	1446.81
445.809	1213.81
445.917	1171.81
446.025	1140.81
446.132	1289.81
446.24	1218.81
446.348	1240.81
446.456	1074.81
446.564	1104.81
446.671	1223.81
446.779	1085.81
446.887	1066.81
446.995	1137.81
447.102	1199.81
447.21	1130.81
447.318	1126.81
447.426	1125.81
447.533	1411.81
447.641	2451.81
447.749	1263.81
447.856	1030.81
447.964	1158.81
448.072	1237.81
448.179	1155.81
448.287	1123.81
448.395	1162.81
448.502	1132.81
448.61	1135.81
448.718	1043.81
448.825	1204.81
448.933	1069.81
449.04	1101.81
449.148	1152.81
449.256	1100.81
449.363	1121.81
449.471	1172.81
449.578	1242.81
449.686	1093.81
449.793	1278.81
449.901	1173.81
450.008	1140.81
450.116	1223.81
450.223	1190.81
450.331	1260.81
450.438	1215.81
450.546	1323.81
450.653	1312.81
450.76	1340.81
450.868	1299.81
450.975	1506.81
451.083	1255.81
451.19	1352.81
451.297	1393.81
451.405	1312.81
451.512	1277.81
451.619	1497.81
451.727	1399.81
451.834	1301.81
451.941	1413.81
452.049	1285.81
452.156	1293.81
452.263	1436.81
452.371	1370.81
452.478	1360.81
452.585	1473.81
452.692	1312.81
452.8	1348.81
452.907	1566.81
453.014	1405.81
453.121	1315.81
453.229	1425.81
453.336	1486.81
453.443	1476.81
453.55	1354.81
453.657	1437.81
453.765	1490.81
453.872	1407.81
453.979	1451.81
454.086	1440.81
454.193	1388.81
454.3	1423.81
454.407	1567.81
454.514	1488.81
454.621	1362.81
454.729	1407.81
454.836	1445.81
454.943	1476.81
455.05	1586.81
455.157	1552.81
455.264	1481.81
455.371	1506.81
455.478	1504.81
455.585	2781.81
455.692	1631.81
455.799	1666.81
455.906	1490.81
456.013	1406.81
456.12	1551.81
456.227	1512.81
456.334	1558.81
456.44	1619.81
456.547	1588.81
456.654	1471.81
456.761	1567.81
456.868	1666.81
456.975	1638.81
457.082	1608.81
457.189	1583.81
457.296	1549.81
457.402	1606.81
457.509	1629.81
457.616	1622.81
457.723	1888.81
457.83	1680.81
457.936	1679.81
458.043	1991.81
458.15	1721.81
458.257	1859.81
458.363	1845.81
458.47	1775.81
458.577	1905.81
458.684	1859.81
458.79	1973.81
458.897	1973.81
459.004	2100.81
459.11	2041.81
459.217	2080.81
459.324	2151.81
459.43	2205.81
459.537	2319.81
459.644	2177.81
459.75	2201.81
459.857	2608.81
459.964	2358.81
460.07	2388.81
460.177	2444.81
460.283	2496.81
460.39	2571.81
460.496	2330.81
460.603	2445.81
460.71	2431.81
460.816	2364.81
460.923	2348.81
461.029	2471.81
461.136	2305.81
461.242	2336.81
461.349	2400.81
461.455	2339.81
461.562	2649.81
461.668	2575.81
461.774	2417.81
461.881	2531.81
461.987	2480.81
462.094	2582.81
462.2	2625.81
462.307	2661.81
462.413	2652.81
462.519	2752.81
462.626	3017.81
462.732	3064.81
462.838	3118.81
462.945	3271.81
463.051	3314.81
463.157	3074.81
463.264	2944.81
463.37	2963.81
463.476	2890.81
463.583	2775.81
463.689	2696.81
463.795	2783.81
463.901	2806.81
464.008	2936.81
464.114	2889.81
464.22	2735.81
464.326	2803.81
464.433	2640.81
464.539	2607.81
464.645	2493.81
464.751	2745.81
464.857	2535.81
464.963	2284.81
465.07	2307.81
465.176	2316.81
465.282	2065.81
465.388	2203.81
465.494	2009.81
465.6	1918.81
465.706	1878.81
465.812	1821.81
465.918	1926.81
466.024	1841.81
466.131	1846.81
466.237	1749.81
466.343	1633.81
466.449	1648.81
466.555	1672.81
466.661	1580.81
466.767	1536.81
466.873	1656.81
466.979	1799.81
467.085	1613.81
467.191	1673.81
467.296	1561.81
467.402	1516.81
467.508	1623.81
467.614	1820.81
467.72	1492.81
467.826	1507.81
467.932	1572.81
468.038	1504.81
468.144	1511.81
468.25	1525.81
468.355	1376.81
468.461	1494.81
468.567	1439.81
468.673	1508.81
468.779	1451.81
468.885	1482.81
468.99	1443.81
469.096	1475.81
469.202	1590.81
469.308	1529.81
469.413	1521.81
469.519	1512.81
469.625	1554.81
469.731	1493.81
469.836	1543.81
469.942	1752.81
470.048	1548.81
470.153	1548.81
470.259	1563.81
470.365	1709.81
470.47	1618.81
470.576	1574.81
470.682	1576.81
470.787	1475.81
470.893	1404.81
470.999	1473.81
471.104	1514.81
471.21	1360.81
471.315	1303.81
471.421	1379.81
471.527	1507.81
471.632	1436.81
471.738	1397.81
471.843	1288.81
471.949	1332.81
472.054	1381.81
472.16	1280.81
472.265	1295.81
472.371	1266.81
472.476	1221.81
472.582	1345.81
472.687	1246.81
472.793	1216.81
472.898	1179.81
473.003	1205.81
473.109	1150.81
473.214	1116.81
473.32	1204.81
473.425	1371.81
473.53	1254.81
473.636	1122.81
473.741	1142.81
473.847	1224.81
473.952	1216.81
474.057	1214.81
474.163	1331.81
474.268	1153.81
474.373	1273.81
474.478	1219.81
474.584	1127.81
474.689	1231.81
474.794	1239.81
474.9	1417.81
475.005	1189.81
475.11	1399.81
475.215	1165.81
475.321	1165.81
475.426	1383.81
475.531	1388.81
475.636	1175.81
475.741	1158.81
475.846	1354.81
475.952	1413.81
476.057	1217.81
476.162	1369.81
476.267	1407.81
476.372	1494.81
476.477	1260.81
476.582	1347.81
476.687	1217.81
476.793	1295.81
476.898	1285.81
477.003	1315.81
477.108	1280.81
477.213	1290.81
477.318	1286.81
477.423	1440.81
477.528	1485.81
477.633	1453.81
477.738	1392.81
477.843	1400.81
477.948	1434.81
478.053	1455.81
478.158	1407.81
478.263	1517.81
478.368	1389.81
478.473	1565.81
478.578	1602.81
478.682	1455.81
478.787	1568.81
478.892	1584.81
478.997	1589.81
479.102	1512.81
479.207	1533.81
479.312	1663.81
479.417	1511.81
479.521	1529.81
479.626	1658.81
479.731	1601.81
479.836	1582.81
479.941	1793.81
480.045	1729.81
480.15	1682.81
480.255	1766.81
480.36	1665.81
480.465	1706.81
480.569	1892.81
480.674	1725.81
480.779	1461.81
480.883	1537.81
480.988	1692.81
481.093	1577.81
481.197	1597.81
481.302	1639.81
481.407	1585.81
481.511	3721.81
481.616	1796.81
481.721	1553.81
481.825	1788.81
481.93	1548.81
482.035	1543.81
482.139	1595.81
482.244	1577.81
482.348	1620.81
482.453	1576.81
482.557	1640.81
482.662	1664.81
482.767	1512.81
482.871	1601.81
482.976	1650.81
483.08	1589.81
483.185	1781.81
483.289	1650.81
483.394	1667.81
483.498	1697.81
483.603	1626.81
483.707	1749.81
483.811	1772.81
483.916	1831.81
484.02	1730.81
484.125	1825.81
484.229	1807.81
484.333	1921.81
484.438	1780.81
484.542	1760.81
484.647	1774.81
484.751	1862.81
484.855	1821.81
484.96	1805.81
485.064	1949.81
485.168	1867.81
485.273	1898.81
485.377	1947.81
485.481	2163.81
485.585	1909.81
485.69	1970.81
485.794	2032.81
485.898	2066.81
486.002	2008.81
486.107	1980.81
486.211	1903.81
486.315	2033.81
486.419	2120.81
486.524	2004.81
486.628	1919.81
486.732	2047.81
486.836	1968.81
486.94	2070.81
487.044	2051.81
487.148	1942.81
487.253	1877.81
487.357	1965.81
487.461	2184.81
487.565	1979.81
487.669	1940.81
487.773	2009.81
487.877	2022.81
487.981	2031.81
488.085	2100.81
488.189	2010.81
488.293	2098.81
488.397	2549.81
488.501	2087.81
488.605	1961.81
488.709	1966.81
488.813	1981.81
488.917	1968.81
489.021	2004.81
489.125	2304.81
489.229	1992.81
489.333	2170.81
489.437	2068.81
489.541	1982.81
489.645	1935.81
489.749	2070.81
489.853	2103.81
489.956	1997.81
490.06	2093.81
490.164	2082.81
490.268	2011.81
490.372	2031.81
490.476	2101.81
490.579	1989.81
490.683	2714.81
490.787	2149.81
490.891	1997.81
490.995	2090.81
491.098	2079.81
491.202	2028.81
491.306	2037.81
491.41	2071.81
491.513	2036.81
491.617	2030.81
491.721	2230.81
491.824	2307.81
491.928	2063.81
492.032	2326.81
492.136	2200.81
492.239	2012.81
492.343	2092.81
492.446	2483.81
492.55	2126.81
492.654	2000.81
492.757	2053.81
492.861	2160.81
492.965	2038.81
493.068	2064.81
493.172	2064.81
493.275	2027.81
493.379	2050.81
493.482	2222.81
493.586	2151.81
493.689	2276.81
493.793	2090.81
493.896	2153.81
494	2164.81
494.103	2217.81
494.207	2466.81
494.31	2532.81
494.414	2172.81
494.517	2167.81
494.621	2004.81
494.724	2064.81
494.828	2007.81
494.931	1996.81
495.034	2106.81
495.138	2300.81
495.241	2020.81
495.345	2864.81
495.448	2218.81
495.551	2102.81
495.655	1971.81
495.758	2077.81
495.861	2032.81
495.965	2016.81
496.068	2039.81
496.171	2130.81
496.274	1971.81
496.378	2013.81
496.481	2133.81
496.584	2057.81
496.687	2145.81
496.791	2167.81
496.894	2223.81
496.997	2123.81
497.1	2130.81
497.204	2239.81
497.307	2127.81
497.41	2384.81
497.513	2504.81
497.616	2256.81
497.719	2309.81
497.823	2362.81
497.926	2388.81
498.029	2395.81
498.132	2510.81
498.235	2584.81
498.338	2634.81
498.441	2757.81
498.544	2865.81
498.647	2882.81
498.75	3075.81
498.853	3320.81
498.956	3171.81
499.059	3555.81
499.163	3470.81
499.266	3770.81
499.369	3825.81
499.471	3975.81
499.574	4266.81
499.677	4417.81
499.78	4684.81
499.883	5095.81
499.986	5378.81
500.089	5508.81
500.192	5770.81
500.295	5696.81
500.398	5677.81
500.501	5507.81
500.604	5231.81
500.707	4909.81
500.809	4716.81
500.912	4667.81
501.015	4337.81
501.118	4064.81
501.221	3878.81
501.324	3551.81
501.426	3394.81
501.529	3241.81
501.632	3113.81
501.735	2900.81
501.837	2805.81
501.94	2738.81
502.043	2711.81
502.146	2533.81
502.248	2591.81
502.351	2421.81
502.454	2392.81
502.557	2316.81
502.659	2247.81
502.762	2181.81
502.865	2156.81
502.967	2140.81
503.07	1994.81
503.173	2100.81
503.275	2051.81
503.378	1950.81
503.48	1907.81
503.583	2117.81
503.686	1965.81
503.788	2248.81
503.891	1990.81
503.993	2159.81
504.096	1934.81
504.198	2035.81
504.301	1978.81
504.403	2016.81
504.506	1991.81
504.608	1957.81
504.711	1844.81
504.813	1880.81
504.916	1862.81
505.018	1665.81
505.121	1641.81
505.223	1705.81
505.326	1621.81
505.428	1647.81
505.531	1625.81
505.633	1661.81
505.735	1496.81
505.838	1491.81
505.94	1576.81
506.042	1441.81
506.145	1436.81
506.247	1588.81
506.35	1389.81
506.452	1503.81
506.554	1582.81
506.656	1506.81
506.759	1358.81
506.861	1534.81
506.963	1425.81
507.066	1406.81
507.168	1525.81
507.27	1448.81
507.372	1366.81
507.475	1409.81
507.577	1446.81
507.679	1376.81
507.781	1274.81
507.883	1386.81
507.986	1309.81
508.088	1345.81
508.19	1346.81
508.292	1397.81
508.394	1306.81
508.496	1283.81
508.598	1285.81
508.701	1307.81
508.803	1352.81
508.905	1293.81
509.007	1355.81
509.109	1388.81
509.211	1390.81
509.313	1310.81
509.415	1236.81
509.517	1303.81
509.619	1269.81
509.721	1326.81
509.823	1290.81
509.925	1466.81
510.027	1330.81
510.129	1325.81
510.231	1390.81
510.333	1274.81
510.435	1267.81
510.537	1267.81
510.639	1364.81
510.741	1265.81
510.843	1377.81
510.945	1301.81
511.047	1327.81
511.148	1370.81
511.25	1289.81
511.352	1289.81
511.454	1177.81
511.556	1363.81
511.658	1245.81
511.76	1369.81
511.861	1475.81
511.963	1273.81
512.065	1256.81
512.167	1231.81
512.268	1485.81
512.37	1319.81
512.472	1268.81
512.574	1419.81
512.676	1347.81
512.777	1260.81
512.879	1255.81
512.981	1230.81
513.082	1311.81
513.184	1334.81
513.286	1775.81
513.387	1410.81
513.489	1490.81
513.591	1438.81
513.692	1438.81
513.794	1359.81
513.896	1327.81
513.997	1257.81
514.099	1273.81
514.2	1396.81
514.302	1397.81
514.404	1334.81
514.505	1278.81
514.607	1453.81
514.708	1364.81
514.81	1476.81
514.911	1474.81
515.013	1425.81
515.114	1511.81
515.216	1440.81
515.317	1388.81
515.419	1410.81
515.52	1497.81
515.622	1483.81
515.723	1502.81
515.825	1634.81
515.926	1520.81
516.027	1532.81
516.129	1521.81
516.23	1644.81
516.332	1622.81
516.433	1662.81
516.534	1838.81
516.636	1756.81
516.737	1681.81
516.838	2956.81
516.94	1955.81
517.041	1901.81
517.142	2125.81
517.244	2141.81
517.345	2042.81
517.446	2113.81
517.547	2139.81
517.649	2018.81
517.75	2110.81
517.851	2065.81
517.952	2310.81
518.054	2062.81
518.155	2214.81
518.256	1890.81
518.357	2021.81
518.458	1880.81
518.56	1832.81
518.661	1759.81
518.762	1798.81
518.863	1935.81
518.964	1755.81
519.065	1598.81
519.166	1729.81
519.268	1584.81
519.369	1885.81
519.47	1713.81
519.571	1655.81
519.672	1538.81
519.773	1583.81
519.874	1626.81
519.975	1645.81
520.076	1608.81
520.177	1677.81
520.278	1541.81
520.379	1535.81
520.48	1549.81
520.581	1484.81
520.682	1495.81
520.783	1538.81
520.884	1590.81
520.985	1519.81
521.086	1536.81
521.187	1612.81
521.288	1505.81
521.389	1556.81
521.489	1498.81
521.59	1445.81
521.691	1567.81
521.792	1583.81
521.893	1648.81
521.994	1649.81
522.095	1602.81
522.195	1590.81
522.296	1577.81
522.397	1615.81
522.498	1575.81
522.599	1454.81
522.699	1489.81
522.8	1576.81
522.901	1616.81
523.002	1473.81
523.102	1834.81
523.203	1499.81
523.304	1696.81
523.405	1553.81
523.505	1500.81
523.606	1585.81
523.707	1612.81
523.807	1529.81
523.908	1523.81
524.009	1685.81
524.109	1638.81
524.21	1496.81
524.31	1644.81
524.411	1693.81
524.512	1687.81
524.612	1609.81
524.713	1750.81
524.813	1533.81
524.914	1862.81
525.014	7672.81
525.115	2042.81
525.216	1508.81
525.316	1548.81
525.417	1622.81
525.517	1500.81
525.618	1529.81
525.718	1563.81
525.819	1430.81
525.919	1594.81
526.019	1551.81
526.12	1631.81
526.22	1472.81
526.321	1507.81
526.421	1442.81
526.522	1543.81
526.622	1527.81
526.722	1509.81
526.823	1537.81
526.923	1528.81
527.023	1731.81
527.124	1480.81
527.224	1637.81
527.324	1506.81
527.425	1508.81
527.525	1440.81
527.625	1561.81
527.726	1529.81
527.826	1612.81
527.926	1575.81
528.026	1617.81
528.127	1492.81
528.227	1520.81
528.327	1663.81
528.427	1537.81
528.528	1535.81
528.628	1594.81
528.728	1553.81
528.828	1595.81
528.928	1650.81
529.029	1523.81
529.129	1582.81
529.229	1586.81
529.329	1572.81
529.429	1630.81
529.529	1684.81
529.629	1646.81
529.729	1504.81
529.829	1724.81
529.93	1554.81
530.03	1618.81
530.13	1579.81
530.23	1528.81
530.33	1721.81
530.43	1523.81
530.53	1618.81
530.63	1646.81
530.73	1495.81
530.83	1474.81
530.93	1526.81
531.03	1476.81
531.13	1545.81
531.23	1512.81
531.33	1583.81
531.429	1576.81
531.529	1753.81
531.629	1537.81
531.729	1452.81
531.829	1453.81
531.929	1512.81
532.029	1564.81
532.129	1504.81
532.229	1631.81
532.328	1456.81
532.428	1485.81
532.528	1427.81
532.628	1478.81
532.728	1538.81
532.827	1399.81
532.927	1604.81
533.027	1462.81
533.127	1605.81
533.227	1559.81
533.326	1535.81
533.426	1413.81
533.526	1631.81
533.625	1602.81
533.725	1774.81
533.825	1591.81
533.924	1397.81
534.024	1368.81
534.124	1449.81
534.223	1520.81
534.323	1838.81
534.423	1473.81
534.522	1516.81
534.622	1398.81
534.722	1365.81
534.821	1486.81
534.921	1348.81
535.02	1303.81
535.12	1524.81
535.219	1511.81
535.319	1456.81
535.419	1413.81
535.518	1383.81
535.618	1377.81
535.717	1462.81
535.817	1351.81
535.916	1265.81
536.016	1346.81
536.115	1312.81
536.215	1277.81
536.314	1218.81
536.413	1224.81
536.513	1276.81
536.612	1263.81
536.712	1208.81
536.811	1266.81
536.91	1167.81
537.01	1251.81
537.109	1326.81
537.209	1261.81
537.308	1220.81
537.407	1281.81
537.507	1258.81
537.606	1232.81
537.705	1336.81
537.805	1255.81
537.904	1131.81
538.003	1238.81
538.102	1335.81
538.202	1243.81
538.301	1273.81
538.4	1330.81
538.499	1234.81
538.599	1253.81
538.698	1545.81
538.797	1202.81
538.896	1344.81
