Data from 42g_HRC06701__43__530.txt Node

Date: Thu Apr 18 02:42:46 CDT 2024
User: Estudiantes 2
Spectrometer: HR+C0670
Trigger mode: 4
Integration Time (sec): 1.000000E0
Scans to average: 1
Electric dark correction enabled: true
Nonlinearity correction enabled: false
Boxcar width: 0
XAxis mode: Wavelengths
Number of Pixels in Spectrum: 2048
>>>>>Begin Spectral Data<<<<<
407.81	-128.94
407.921	-128.94
408.032	-128.94
408.143	-153.94
408.254	-153.94
408.365	76.06
408.476	288.06
408.587	-37.94
408.699	26.06
408.81	-24.94
408.921	-55.94
409.032	8.06
409.143	28.06
409.254	24.06
409.365	80.06
409.476	-41.94
409.587	24.06
409.698	43.06
409.809	138.06
409.92	-48.94
410.031	-43.94
410.142	105.06
410.253	-0.94
410.364	57.06
410.475	42.06
410.585	353.06
410.696	322.06
410.807	307.06
410.918	305.06
411.029	383.06
411.14	346.06
411.251	347.06
411.362	388.06
411.472	400.06
411.583	402.06
411.694	368.06
411.805	338.06
411.916	357.06
412.026	396.06
412.137	389.06
412.248	406.06
412.359	370.06
412.47	280.06
412.58	309.06
412.691	439.06
412.802	338.06
412.912	313.06
413.023	392.06
413.134	339.06
413.245	432.06
413.355	397.06
413.466	300.06
413.577	340.06
413.687	440.06
413.798	341.06
413.909	408.06
414.019	333.06
414.13	402.06
414.24	323.06
414.351	399.06
414.462	578.06
414.572	389.06
414.683	366.06
414.793	337.06
414.904	704.06
415.014	348.06
415.125	293.06
415.235	407.06
415.346	462.06
415.456	472.06
415.567	409.06
415.677	365.06
415.788	418.06
415.898	375.06
416.009	309.06
416.119	394.06
416.23	385.06
416.34	332.06
416.45	336.06
416.561	1179.06
416.671	500.06
416.782	273.06
416.892	332.06
417.002	448.06
417.113	402.06
417.223	383.06
417.333	362.06
417.444	293.06
417.554	410.06
417.664	422.06
417.775	333.06
417.885	330.06
417.995	385.06
418.106	534.06
418.216	391.06
418.326	451.06
418.436	439.06
418.547	347.06
418.657	329.06
418.767	540.06
418.877	415.06
418.987	378.06
419.098	434.06
419.208	417.06
419.318	478.06
419.428	439.06
419.538	447.06
419.648	387.06
419.759	451.06
419.869	498.06
419.979	393.06
420.089	362.06
420.199	404.06
420.309	422.06
420.419	441.06
420.529	441.06
420.639	938.06
420.749	471.06
420.859	461.06
420.969	485.06
421.079	657.06
421.189	545.06
421.299	496.06
421.409	370.06
421.519	520.06
421.629	520.06
421.739	396.06
421.849	385.06
421.959	393.06
422.069	479.06
422.179	417.06
422.289	408.06
422.399	446.06
422.509	505.06
422.619	4182.06
422.729	869.06
422.838	379.06
422.948	471.06
423.058	429.06
423.168	435.06
423.278	402.06
423.388	497.06
423.498	502.06
423.607	468.06
423.717	778.06
423.827	838.06
423.937	466.06
424.046	569.06
424.156	611.06
424.266	469.06
424.376	706.06
424.485	688.06
424.595	449.06
424.705	487.06
424.815	519.06
424.924	936.06
425.034	581.06
425.144	441.06
425.253	545.06
425.363	512.06
425.473	564.06
425.582	484.06
425.692	456.06
425.801	459.06
425.911	698.06
426.021	550.06
426.13	600.06
426.24	797.06
426.349	652.06
426.459	520.06
426.568	486.06
426.678	699.06
426.787	536.06
426.897	491.06
427.006	560.06
427.116	537.06
427.225	522.06
427.335	641.06
427.444	528.06
427.554	601.06
427.663	569.06
427.773	537.06
427.882	604.06
427.992	529.06
428.101	580.06
428.21	508.06
428.32	573.06
428.429	509.06
428.539	790.06
428.648	569.06
428.757	660.06
428.867	584.06
428.976	674.06
429.085	632.06
429.195	521.06
429.304	557.06
429.413	648.06
429.523	666.06
429.632	597.06
429.741	629.06
429.85	595.06
429.96	575.06
430.069	563.06
430.178	578.06
430.287	884.06
430.397	608.06
430.506	635.06
430.615	590.06
430.724	631.06
430.833	627.06
430.943	656.06
431.052	608.06
431.161	565.06
431.27	682.06
431.379	585.06
431.488	795.06
431.597	757.06
431.706	789.06
431.816	672.06
431.925	658.06
432.034	685.06
432.143	738.06
432.252	713.06
432.361	803.06
432.47	662.06
432.579	638.06
432.688	716.06
432.797	689.06
432.906	625.06
433.015	749.06
433.124	1110.06
433.233	719.06
433.342	775.06
433.451	720.06
433.56	691.06
433.669	682.06
433.778	703.06
433.886	689.06
433.995	679.06
434.104	877.06
434.213	713.06
434.322	666.06
434.431	880.06
434.54	772.06
434.649	879.06
434.757	755.06
434.866	747.06
434.975	791.06
435.084	867.06
435.193	794.06
435.301	1001.06
435.41	1101.06
435.519	1246.06
435.628	706.06
435.737	644.06
435.845	646.06
435.954	633.06
436.063	664.06
436.171	679.06
436.28	703.06
436.389	766.06
436.498	669.06
436.606	722.06
436.715	851.06
436.823	653.06
436.932	638.06
437.041	648.06
437.149	706.06
437.258	637.06
437.367	587.06
437.475	581.06
437.584	876.06
437.692	651.06
437.801	2206.06
437.91	798.06
438.018	626.06
438.127	530.06
438.235	656.06
438.344	610.06
438.452	617.06
438.561	568.06
438.669	570.06
438.778	576.06
438.886	560.06
438.995	543.06
439.103	617.06
439.212	560.06
439.32	556.06
439.428	578.06
439.537	582.06
439.645	675.06
439.754	655.06
439.862	594.06
439.97	622.06
440.079	625.06
440.187	509.06
440.295	706.06
440.404	586.06
440.512	643.06
440.62	665.06
440.729	708.06
440.837	737.06
440.945	1319.06
441.054	748.06
441.162	720.06
441.27	742.06
441.378	663.06
441.487	713.06
441.595	988.06
441.703	740.06
441.811	716.06
441.92	702.06
442.028	615.06
442.136	668.06
442.244	748.06
442.352	621.06
442.461	577.06
442.569	617.06
442.677	577.06
442.785	659.06
442.893	671.06
443.001	612.06
443.109	570.06
443.217	623.06
443.325	636.06
443.434	1175.06
443.542	923.06
443.65	692.06
443.758	813.06
443.866	685.06
443.974	1058.06
444.082	777.06
444.19	712.06
444.298	753.06
444.406	879.06
444.514	753.06
444.622	824.06
444.73	874.06
444.838	764.06
444.946	816.06
445.054	739.06
445.161	697.06
445.269	602.06
445.377	782.06
445.485	718.06
445.593	675.06
445.701	916.06
445.809	744.06
445.917	668.06
446.025	584.06
446.132	792.06
446.24	751.06
446.348	675.06
446.456	620.06
446.564	560.06
446.671	667.06
446.779	664.06
446.887	598.06
446.995	608.06
447.102	664.06
447.21	679.06
447.318	577.06
447.426	567.06
447.533	901.06
447.641	1898.06
447.749	764.06
447.856	684.06
447.964	640.06
448.072	754.06
448.179	646.06
448.287	672.06
448.395	683.06
448.502	638.06
448.61	687.06
448.718	615.06
448.825	678.06
448.933	669.06
449.04	564.06
449.148	634.06
449.256	676.06
449.363	649.06
449.471	664.06
449.578	732.06
449.686	617.06
449.793	745.06
449.901	632.06
450.008	706.06
450.116	675.06
450.223	672.06
450.331	782.06
450.438	695.06
450.546	765.06
450.653	836.06
450.76	721.06
450.868	739.06
450.975	942.06
451.083	704.06
451.19	773.06
451.297	793.06
451.405	815.06
451.512	691.06
451.619	896.06
451.727	910.06
451.834	725.06
451.941	736.06
452.049	775.06
452.156	784.06
452.263	785.06
452.371	748.06
452.478	791.06
452.585	878.06
452.692	736.06
452.8	851.06
452.907	909.06
453.014	820.06
453.121	783.06
453.229	798.06
453.336	833.06
453.443	913.06
453.55	754.06
453.657	802.06
453.765	905.06
453.872	863.06
453.979	849.06
454.086	813.06
454.193	855.06
454.3	778.06
454.407	969.06
454.514	971.06
454.621	794.06
454.729	799.06
454.836	874.06
454.943	818.06
455.05	898.06
455.157	993.06
455.264	889.06
455.371	852.06
455.478	816.06
455.585	2235.06
455.692	1014.06
455.799	1033.06
455.906	876.06
456.013	792.06
456.12	854.06
456.227	918.06
456.334	927.06
456.44	1027.06
456.547	971.06
456.654	843.06
456.761	893.06
456.868	953.06
456.975	977.06
457.082	870.06
457.189	866.06
457.296	934.06
457.402	869.06
457.509	881.06
457.616	1001.06
457.723	1132.06
457.83	936.06
457.936	924.06
458.043	1306.06
458.15	1026.06
458.257	1085.06
458.363	1027.06
458.47	986.06
458.577	1078.06
458.684	1035.06
458.79	1101.06
458.897	1088.06
459.004	1220.06
459.11	1110.06
459.217	1124.06
459.324	1213.06
459.43	1330.06
459.537	1447.06
459.644	1226.06
459.75	1220.06
459.857	1611.06
459.964	1262.06
460.07	1360.06
460.177	1333.06
460.283	1413.06
460.39	1527.06
460.496	1372.06
460.603	1352.06
460.71	1387.06
460.816	1271.06
460.923	1246.06
461.029	1341.06
461.136	1431.06
461.242	1352.06
461.349	1357.06
461.455	1401.06
461.562	1663.06
461.668	1454.06
461.774	1390.06
461.881	1492.06
461.987	1453.06
462.094	1471.06
462.2	1489.06
462.307	1495.06
462.413	1489.06
462.519	1499.06
462.626	1688.06
462.732	1654.06
462.838	1677.06
462.945	1757.06
463.051	1752.06
463.157	1694.06
463.264	1683.06
463.37	1654.06
463.476	1582.06
463.583	1616.06
463.689	1439.06
463.795	1496.06
463.901	1605.06
464.008	1644.06
464.114	1491.06
464.22	1495.06
464.326	1526.06
464.433	1446.06
464.539	1431.06
464.645	1398.06
464.751	1623.06
464.857	1457.06
464.963	1266.06
465.07	1325.06
465.176	1324.06
465.282	1271.06
465.388	1304.06
465.494	1144.06
465.6	1135.06
465.706	1037.06
465.812	1017.06
465.918	1198.06
466.024	1031.06
466.131	1065.06
466.237	1024.06
466.343	962.06
466.449	970.06
466.555	933.06
466.661	965.06
466.767	891.06
466.873	915.06
466.979	1115.06
467.085	887.06
467.191	906.06
467.296	919.06
467.402	880.06
467.508	930.06
467.614	1062.06
467.72	857.06
467.826	855.06
467.932	869.06
468.038	857.06
468.144	831.06
468.25	855.06
468.355	820.06
468.461	817.06
468.567	767.06
468.673	847.06
468.779	867.06
468.885	830.06
468.99	805.06
469.096	809.06
469.202	916.06
469.308	885.06
469.413	981.06
469.519	874.06
469.625	839.06
469.731	913.06
469.836	831.06
469.942	1023.06
470.048	909.06
470.153	897.06
470.259	821.06
470.365	983.06
470.47	948.06
470.576	860.06
470.682	861.06
470.787	872.06
470.893	770.06
470.999	873.06
471.104	933.06
471.21	759.06
471.315	704.06
471.421	736.06
471.527	986.06
471.632	840.06
471.738	835.06
471.843	749.06
471.949	786.06
472.054	766.06
472.16	749.06
472.265	709.06
472.371	697.06
472.476	806.06
472.582	808.06
472.687	719.06
472.793	659.06
472.898	714.06
473.003	660.06
473.109	696.06
473.214	686.06
473.32	674.06
473.425	754.06
473.53	759.06
473.636	638.06
473.741	641.06
473.847	674.06
473.952	710.06
474.057	750.06
474.163	782.06
474.268	681.06
474.373	784.06
474.478	657.06
474.584	641.06
474.689	736.06
474.794	724.06
474.9	1028.06
475.005	649.06
475.11	842.06
475.215	706.06
475.321	689.06
475.426	846.06
475.531	867.06
475.636	682.06
475.741	620.06
475.846	821.06
475.952	909.06
476.057	781.06
476.162	807.06
476.267	935.06
476.372	1021.06
476.477	758.06
476.582	844.06
476.687	726.06
476.793	770.06
476.898	714.06
477.003	771.06
477.108	741.06
477.213	730.06
477.318	782.06
477.423	792.06
477.528	910.06
477.633	914.06
477.738	791.06
477.843	735.06
477.948	850.06
478.053	756.06
478.158	792.06
478.263	840.06
478.368	852.06
478.473	898.06
478.578	866.06
478.682	836.06
478.787	898.06
478.892	873.06
478.997	993.06
479.102	807.06
479.207	816.06
479.312	1027.06
479.417	876.06
479.521	788.06
479.626	984.06
479.731	953.06
479.836	880.06
479.941	978.06
480.045	1017.06
480.15	972.06
480.255	918.06
480.36	888.06
480.465	963.06
480.569	1081.06
480.674	972.06
480.779	836.06
480.883	873.06
480.988	922.06
481.093	903.06
481.197	877.06
481.302	916.06
481.407	984.06
481.511	2799.06
481.616	1025.06
481.721	956.06
481.825	1094.06
481.93	889.06
482.035	887.06
482.139	975.06
482.244	911.06
482.348	904.06
482.453	922.06
482.557	946.06
482.662	921.06
482.767	889.06
482.871	900.06
482.976	883.06
483.08	972.06
483.185	1081.06
483.289	895.06
483.394	926.06
483.498	990.06
483.603	883.06
483.707	952.06
483.811	1010.06
483.916	1016.06
484.02	966.06
484.125	1134.06
484.229	1014.06
484.333	1105.06
484.438	1018.06
484.542	980.06
484.647	968.06
484.751	1019.06
484.855	1065.06
484.96	1009.06
485.064	1077.06
485.168	1082.06
485.273	1037.06
485.377	1062.06
485.481	1302.06
485.585	1010.06
485.69	1080.06
485.794	1128.06
485.898	1073.06
486.002	1015.06
486.107	1133.06
486.211	1132.06
486.315	1095.06
486.419	1178.06
486.524	1151.06
486.628	997.06
486.732	1091.06
486.836	1120.06
486.94	1141.06
487.044	1106.06
487.148	1090.06
487.253	1008.06
487.357	1120.06
487.461	1318.06
487.565	1139.06
487.669	1132.06
487.773	1097.06
487.877	1259.06
487.981	1206.06
488.085	1150.06
488.189	1154.06
488.293	1308.06
488.397	1600.06
488.501	1196.06
488.605	1098.06
488.709	1088.06
488.813	1114.06
488.917	1087.06
489.021	1132.06
489.125	1449.06
489.229	1185.06
489.333	1266.06
489.437	1161.06
489.541	1224.06
489.645	1106.06
489.749	1168.06
489.853	1216.06
489.956	1088.06
490.06	1156.06
490.164	1223.06
490.268	1081.06
490.372	1153.06
490.476	1204.06
490.579	1151.06
490.683	1772.06
490.787	1247.06
490.891	1216.06
490.995	1180.06
491.098	1167.06
491.202	1174.06
491.306	1160.06
491.41	1183.06
491.513	1106.06
491.617	1181.06
491.721	1337.06
491.824	1415.06
491.928	1209.06
492.032	1385.06
492.136	1163.06
492.239	1169.06
492.343	1125.06
492.446	1533.06
492.55	1283.06
492.654	1129.06
492.757	1072.06
492.861	1260.06
492.965	1207.06
493.068	1185.06
493.172	1216.06
493.275	1165.06
493.379	1143.06
493.482	1277.06
493.586	1376.06
493.689	1403.06
493.793	1184.06
493.896	1363.06
494	1271.06
494.103	1240.06
494.207	1528.06
494.31	1618.06
494.414	1245.06
494.517	1204.06
494.621	1177.06
494.724	1153.06
494.828	1153.06
494.931	1189.06
495.034	1145.06
495.138	1364.06
495.241	1176.06
495.345	2065.06
495.448	1325.06
495.551	1121.06
495.655	1198.06
495.758	1094.06
495.861	1105.06
495.965	1188.06
496.068	1223.06
496.171	1311.06
496.274	1228.06
496.378	1180.06
496.481	1217.06
496.584	1223.06
496.687	1187.06
496.791	1266.06
496.894	1298.06
496.997	1223.06
497.1	1223.06
497.204	1301.06
497.307	1272.06
497.41	1430.06
497.513	1524.06
497.616	1350.06
497.719	1291.06
497.823	1310.06
497.926	1358.06
498.029	1376.06
498.132	1400.06
498.235	1492.06
498.338	1519.06
498.441	1620.06
498.544	1584.06
498.647	1650.06
498.75	1774.06
498.853	1845.06
498.956	1824.06
499.059	1997.06
499.163	1914.06
499.266	2012.06
499.369	2067.06
499.471	2069.06
499.574	2388.06
499.677	2384.06
499.78	2468.06
499.883	2571.06
499.986	2785.06
500.089	2717.06
500.192	2799.06
500.295	2848.06
500.398	2740.06
500.501	2827.06
500.604	2721.06
500.707	2503.06
500.809	2473.06
500.912	2533.06
501.015	2384.06
501.118	2184.06
501.221	2159.06
501.324	2010.06
501.426	1865.06
501.529	1739.06
501.632	1785.06
501.735	1603.06
501.837	1592.06
501.94	1599.06
502.043	1464.06
502.146	1439.06
502.248	1490.06
502.351	1409.06
502.454	1332.06
502.557	1281.06
502.659	1333.06
502.762	1191.06
502.865	1249.06
502.967	1232.06
503.07	1183.06
503.173	1245.06
503.275	1147.06
503.378	1129.06
503.48	1096.06
503.583	1191.06
503.686	1191.06
503.788	1357.06
503.891	1096.06
503.993	1334.06
504.096	1132.06
504.198	1128.06
504.301	1097.06
504.403	1063.06
504.506	1085.06
504.608	1097.06
504.711	1006.06
504.813	1104.06
504.916	1074.06
505.018	1025.06
505.121	920.06
505.223	998.06
505.326	1017.06
505.428	987.06
505.531	929.06
505.633	1001.06
505.735	872.06
505.838	888.06
505.94	942.06
506.042	856.06
506.145	774.06
506.247	954.06
506.35	851.06
506.452	926.06
506.554	865.06
506.656	935.06
506.759	766.06
506.861	800.06
506.963	845.06
507.066	816.06
507.168	932.06
507.27	793.06
507.372	754.06
507.475	789.06
507.577	833.06
507.679	844.06
507.781	722.06
507.883	732.06
507.986	766.06
508.088	750.06
508.19	820.06
508.292	858.06
508.394	747.06
508.496	715.06
508.598	768.06
508.701	743.06
508.803	773.06
508.905	729.06
509.007	802.06
509.109	889.06
509.211	786.06
509.313	798.06
509.415	661.06
509.517	744.06
509.619	752.06
509.721	806.06
509.823	710.06
509.925	909.06
510.027	759.06
510.129	751.06
510.231	781.06
510.333	764.06
510.435	668.06
510.537	748.06
510.639	874.06
510.741	770.06
510.843	810.06
510.945	778.06
511.047	793.06
511.148	815.06
511.25	737.06
511.352	788.06
511.454	652.06
511.556	785.06
511.658	759.06
511.76	857.06
511.861	899.06
511.963	729.06
512.065	699.06
512.167	720.06
512.268	922.06
512.37	755.06
512.472	708.06
512.574	813.06
512.676	860.06
512.777	678.06
512.879	711.06
512.981	727.06
513.082	739.06
513.184	741.06
513.286	1233.06
513.387	820.06
513.489	869.06
513.591	835.06
513.692	843.06
513.794	797.06
513.896	715.06
513.997	695.06
514.099	749.06
514.2	806.06
514.302	852.06
514.404	728.06
514.505	731.06
514.607	866.06
514.708	761.06
514.81	823.06
514.911	855.06
515.013	881.06
515.114	872.06
515.216	841.06
515.317	894.06
515.419	783.06
515.52	881.06
515.622	913.06
515.723	820.06
515.825	1004.06
515.926	934.06
516.027	821.06
516.129	858.06
516.23	933.06
516.332	974.06
516.433	911.06
516.534	1047.06
516.636	969.06
516.737	941.06
516.838	2097.06
516.94	1205.06
517.041	1019.06
517.142	1184.06
517.244	1232.06
517.345	1117.06
517.446	1160.06
517.547	1207.06
517.649	1122.06
517.75	1142.06
517.851	1132.06
517.952	1443.06
518.054	1136.06
518.155	1247.06
518.256	1107.06
518.357	1181.06
518.458	996.06
518.56	988.06
518.661	988.06
518.762	1010.06
518.863	1106.06
518.964	1077.06
519.065	921.06
519.166	925.06
519.268	932.06
519.369	1166.06
519.47	959.06
519.571	1019.06
519.672	798.06
519.773	925.06
519.874	977.06
519.975	954.06
520.076	934.06
520.177	1084.06
520.278	899.06
520.379	910.06
520.48	830.06
520.581	894.06
520.682	831.06
520.783	847.06
520.884	1005.06
520.985	908.06
521.086	908.06
521.187	989.06
521.288	862.06
521.389	929.06
521.489	912.06
521.59	826.06
521.691	870.06
521.792	871.06
521.893	1029.06
521.994	1015.06
522.095	924.06
522.195	976.06
522.296	955.06
522.397	980.06
522.498	957.06
522.599	844.06
522.699	841.06
522.8	917.06
522.901	957.06
523.002	872.06
523.102	1042.06
523.203	901.06
523.304	1014.06
523.405	894.06
523.505	970.06
523.606	905.06
523.707	917.06
523.807	922.06
523.908	913.06
524.009	1026.06
524.109	964.06
524.21	871.06
524.31	966.06
524.411	1003.06
524.512	1058.06
524.612	956.06
524.713	1068.06
524.813	953.06
524.914	1148.06
525.014	6932.06
525.115	1440.06
525.216	856.06
525.316	894.06
525.417	943.06
525.517	865.06
525.618	897.06
525.718	852.06
525.819	903.06
525.919	970.06
526.019	894.06
526.12	998.06
526.22	867.06
526.321	844.06
526.421	855.06
526.522	813.06
526.622	797.06
526.722	873.06
526.823	907.06
526.923	971.06
527.023	1013.06
527.124	908.06
527.224	959.06
527.324	867.06
527.425	928.06
527.525	820.06
527.625	856.06
527.726	931.06
527.826	940.06
527.926	829.06
528.026	913.06
528.127	865.06
528.227	870.06
528.327	969.06
528.427	946.06
528.528	915.06
528.628	945.06
528.728	943.06
528.828	947.06
528.928	981.06
529.029	924.06
529.129	945.06
529.229	925.06
529.329	911.06
529.429	1016.06
529.529	976.06
529.629	942.06
529.729	939.06
529.829	1092.06
529.93	915.06
530.03	1023.06
530.13	880.06
530.23	881.06
530.33	1075.06
530.43	853.06
530.53	920.06
530.63	931.06
530.73	870.06
530.83	781.06
530.93	851.06
531.03	871.06
531.13	908.06
531.23	823.06
531.33	926.06
531.429	920.06
531.529	1053.06
531.629	977.06
531.729	837.06
531.829	763.06
531.929	836.06
532.029	933.06
532.129	809.06
532.229	918.06
532.328	893.06
532.428	851.06
532.528	852.06
532.628	833.06
532.728	859.06
532.827	821.06
532.927	936.06
533.027	833.06
533.127	962.06
533.227	871.06
533.326	944.06
533.426	802.06
533.526	919.06
533.625	1057.06
533.725	1141.06
533.825	936.06
533.924	816.06
534.024	703.06
534.124	768.06
534.223	891.06
534.323	1225.06
534.423	855.06
534.522	870.06
534.622	797.06
534.722	789.06
534.821	863.06
534.921	820.06
535.02	734.06
535.12	879.06
535.219	984.06
535.319	907.06
535.419	875.06
535.518	805.06
535.618	859.06
535.717	868.06
535.817	751.06
535.916	707.06
536.016	821.06
536.115	748.06
536.215	803.06
536.314	682.06
536.413	671.06
536.513	760.06
536.612	750.06
536.712	673.06
536.811	752.06
536.91	718.06
537.01	700.06
537.109	748.06
537.209	751.06
537.308	659.06
537.407	689.06
537.507	758.06
537.606	644.06
537.705	788.06
537.805	800.06
537.904	663.06
538.003	759.06
538.102	832.06
538.202	736.06
538.301	800.06
538.4	803.06
538.499	776.06
538.599	708.06
538.698	958.06
538.797	779.06
538.896	809.06
538.995	761.06
539.095	737.06
539.194	913.06
539.293	709.06
539.392	738.06
539.491	720.06
539.59	686.06
539.689	825.06
539.789	866.06
539.888	588.06
539.987	588.06
540.086	761.06
540.185	699.06
540.284	729.06
540.383	753.06
540.482	631.06
540.581	655.06
540.68	689.06
540.779	705.06
540.878	675.06
540.977	774.06
541.076	718.06
541.175	713.06
541.274	975.06
541.373	812.06
541.472	727.06
541.571	625.06
541.67	2096.06
541.769	875.06
541.868	700.06
541.966	848.06
542.065	727.06
542.164	683.06
542.263	638.06
542.362	726.06
542.461	781.06
542.56	756.06
542.658	792.06
542.757	602.06
542.856	621.06
542.955	672.06
543.054	626.06
543.152	772.06
543.251	715.06
543.35	838.06
543.449	697.06
543.547	661.06
