Data from 42g_HRC06701__39__526.txt Node

Date: Thu Apr 18 02:42:42 CDT 2024
User: Estudiantes 2
Spectrometer: HR+C0670
Trigger mode: 4
Integration Time (sec): 1.000000E0
Scans to average: 1
Electric dark correction enabled: true
Nonlinearity correction enabled: false
Boxcar width: 0
XAxis mode: Wavelengths
Number of Pixels in Spectrum: 2048
>>>>>Begin Spectral Data<<<<<
407.81	-147.81
407.921	-147.81
408.032	-147.81
408.143	-111.81
408.254	-174.81
408.365	35.19
408.476	316.19
408.587	-29.81
408.699	-19.81
408.81	1.19
408.921	-43.81
409.032	-39.81
409.143	64.19
409.254	43.19
409.365	74.19
409.476	-55.81
409.587	34.19
409.698	55.19
409.809	64.19
409.92	9.19
410.031	-43.81
410.142	80.19
410.253	51.19
410.364	43.19
410.475	8.19
410.585	289.19
410.696	357.19
410.807	283.19
410.918	320.19
411.029	358.19
411.14	310.19
411.251	302.19
411.362	415.19
411.472	392.19
411.583	399.19
411.694	405.19
411.805	275.19
411.916	306.19
412.026	427.19
412.137	334.19
412.248	333.19
412.359	343.19
412.47	305.19
412.58	262.19
412.691	350.19
412.802	419.19
412.912	283.19
413.023	340.19
413.134	382.19
413.245	417.19
413.355	293.19
413.466	279.19
413.577	328.19
413.687	429.19
413.798	267.19
413.909	430.19
414.019	300.19
414.13	352.19
414.24	338.19
414.351	369.19
414.462	472.19
414.572	436.19
414.683	404.19
414.793	320.19
414.904	705.19
415.014	363.19
415.125	257.19
415.235	313.19
415.346	511.19
415.456	480.19
415.567	339.19
415.677	407.19
415.788	368.19
415.898	310.19
416.009	348.19
416.119	391.19
416.23	303.19
416.34	258.19
416.45	386.19
416.561	1157.19
416.671	491.19
416.782	301.19
416.892	293.19
417.002	390.19
417.113	423.19
417.223	335.19
417.333	324.19
417.444	352.19
417.554	416.19
417.664	384.19
417.775	308.19
417.885	390.19
417.995	359.19
418.106	494.19
418.216	433.19
418.326	373.19
418.436	358.19
418.547	413.19
418.657	288.19
418.767	425.19
418.877	394.19
418.987	370.19
419.098	382.19
419.208	383.19
419.318	513.19
419.428	401.19
419.538	347.19
419.648	464.19
419.759	440.19
419.869	449.19
419.979	404.19
420.089	416.19
420.199	375.19
420.309	437.19
420.419	447.19
420.529	402.19
420.639	948.19
420.749	523.19
420.859	494.19
420.969	384.19
421.079	658.19
421.189	515.19
421.299	456.19
421.409	386.19
421.519	477.19
421.629	521.19
421.739	455.19
421.849	369.19
421.959	357.19
422.069	485.19
422.179	435.19
422.289	388.19
422.399	433.19
422.509	558.19
422.619	4148.19
422.729	824.19
422.838	435.19
422.948	502.19
423.058	420.19
423.168	427.19
423.278	479.19
423.388	472.19
423.498	544.19
423.607	483.19
423.717	738.19
423.827	764.19
423.937	524.19
424.046	571.19
424.156	565.19
424.266	498.19
424.376	686.19
424.485	641.19
424.595	457.19
424.705	463.19
424.815	481.19
424.924	930.19
425.034	623.19
425.144	400.19
425.253	492.19
425.363	557.19
425.473	553.19
425.582	439.19
425.692	485.19
425.801	391.19
425.911	633.19
426.021	535.19
426.13	628.19
426.24	725.19
426.349	639.19
426.459	583.19
426.568	475.19
426.678	610.19
426.787	548.19
426.897	460.19
427.006	507.19
427.116	597.19
427.225	488.19
427.335	539.19
427.444	481.19
427.554	632.19
427.663	517.19
427.773	458.19
427.882	566.19
427.992	483.19
428.101	471.19
428.21	567.19
428.32	514.19
428.429	471.19
428.539	819.19
428.648	529.19
428.757	583.19
428.867	556.19
428.976	660.19
429.085	569.19
429.195	500.19
429.304	571.19
429.413	579.19
429.523	595.19
429.632	641.19
429.741	567.19
429.85	526.19
429.96	592.19
430.069	524.19
430.178	525.19
430.287	847.19
430.397	619.19
430.506	541.19
430.615	524.19
430.724	599.19
430.833	588.19
430.943	606.19
431.052	688.19
431.161	533.19
431.27	616.19
431.379	555.19
431.488	747.19
431.597	672.19
431.706	732.19
431.816	655.19
431.925	605.19
432.034	588.19
432.143	687.19
432.252	584.19
432.361	685.19
432.47	673.19
432.579	590.19
432.688	606.19
432.797	648.19
432.906	562.19
433.015	626.19
433.124	1041.19
433.233	706.19
433.342	668.19
433.451	632.19
433.56	644.19
433.669	599.19
433.778	619.19
433.886	694.19
433.995	650.19
434.104	735.19
434.213	672.19
434.322	690.19
434.431	771.19
434.54	723.19
434.649	881.19
434.757	734.19
434.866	691.19
434.975	791.19
435.084	788.19
435.193	767.19
435.301	1003.19
435.41	1105.19
435.519	1104.19
435.628	674.19
435.737	608.19
435.845	540.19
435.954	562.19
436.063	670.19
436.171	590.19
436.28	627.19
436.389	763.19
436.498	621.19
436.606	603.19
436.715	815.19
436.823	541.19
436.932	560.19
437.041	550.19
437.149	668.19
437.258	504.19
437.367	512.19
437.475	548.19
437.584	805.19
437.692	566.19
437.801	2137.19
437.91	714.19
438.018	492.19
438.127	503.19
438.235	571.19
438.344	503.19
438.452	536.19
438.561	541.19
438.669	511.19
438.778	460.19
438.886	549.19
438.995	499.19
439.103	533.19
439.212	614.19
439.32	471.19
439.428	488.19
439.537	579.19
439.645	628.19
439.754	528.19
439.862	534.19
439.97	592.19
440.079	544.19
440.187	487.19
440.295	687.19
440.404	547.19
440.512	582.19
440.62	654.19
440.729	649.19
440.837	640.19
440.945	1262.19
441.054	703.19
441.162	590.19
441.27	723.19
441.378	676.19
441.487	628.19
441.595	987.19
441.703	798.19
441.811	664.19
441.92	593.19
442.028	596.19
442.136	644.19
442.244	688.19
442.352	681.19
442.461	551.19
442.569	501.19
442.677	601.19
442.785	676.19
442.893	542.19
443.001	547.19
443.109	577.19
443.217	531.19
443.325	535.19
443.434	1144.19
443.542	780.19
443.65	618.19
443.758	797.19
443.866	630.19
443.974	983.19
444.082	686.19
444.19	719.19
444.298	751.19
444.406	816.19
444.514	795.19
444.622	824.19
444.73	838.19
444.838	774.19
444.946	745.19
445.054	653.19
445.161	683.19
445.269	628.19
445.377	701.19
445.485	648.19
445.593	654.19
445.701	869.19
445.809	674.19
445.917	684.19
446.025	519.19
446.132	693.19
446.24	723.19
446.348	632.19
446.456	510.19
446.564	575.19
446.671	624.19
446.779	568.19
446.887	555.19
446.995	638.19
447.102	607.19
447.21	627.19
447.318	637.19
447.426	502.19
447.533	829.19
447.641	1909.19
447.749	695.19
447.856	547.19
447.964	600.19
448.072	687.19
448.179	501.19
448.287	635.19
448.395	660.19
448.502	523.19
448.61	556.19
448.718	601.19
448.825	594.19
448.933	591.19
449.04	559.19
449.148	605.19
449.256	569.19
449.363	625.19
449.471	623.19
449.578	672.19
449.686	575.19
449.793	712.19
449.901	574.19
450.008	658.19
450.116	671.19
450.223	538.19
450.331	679.19
450.438	651.19
450.546	669.19
450.653	685.19
450.76	677.19
450.868	752.19
450.975	839.19
451.083	653.19
451.19	792.19
451.297	674.19
451.405	665.19
451.512	703.19
451.619	824.19
451.727	768.19
451.834	671.19
451.941	681.19
452.049	648.19
452.156	678.19
452.263	725.19
452.371	679.19
452.478	726.19
452.585	854.19
452.692	634.19
452.8	699.19
452.907	918.19
453.014	705.19
453.121	677.19
453.229	799.19
453.336	813.19
453.443	804.19
453.55	686.19
453.657	767.19
453.765	802.19
453.872	735.19
453.979	855.19
454.086	710.19
454.193	760.19
454.3	754.19
454.407	840.19
454.514	831.19
454.621	715.19
454.729	732.19
454.836	744.19
454.943	768.19
455.05	854.19
455.157	795.19
455.264	721.19
455.371	833.19
455.478	758.19
455.585	2042.19
455.692	979.19
455.799	922.19
455.906	728.19
456.013	772.19
456.12	740.19
456.227	773.19
456.334	816.19
456.44	946.19
456.547	774.19
456.654	751.19
456.761	807.19
456.868	842.19
456.975	818.19
457.082	803.19
457.189	733.19
457.296	791.19
457.402	776.19
457.509	810.19
457.616	813.19
457.723	1022.19
457.83	868.19
457.936	819.19
458.043	1115.19
458.15	892.19
458.257	941.19
458.363	840.19
458.47	903.19
458.577	941.19
458.684	917.19
458.79	953.19
458.897	1019.19
459.004	1036.19
459.11	1000.19
459.217	1074.19
459.324	1081.19
459.43	1166.19
459.537	1383.19
459.644	1053.19
459.75	1053.19
459.857	1518.19
459.964	1205.19
460.07	1193.19
460.177	1160.19
460.283	1268.19
460.39	1324.19
460.496	1243.19
460.603	1313.19
460.71	1199.19
460.816	1172.19
460.923	1200.19
461.029	1194.19
461.136	1202.19
461.242	1194.19
461.349	1257.19
461.455	1144.19
461.562	1514.19
461.668	1297.19
461.774	1217.19
461.881	1302.19
461.987	1300.19
462.094	1291.19
462.2	1334.19
462.307	1422.19
462.413	1269.19
462.519	1325.19
462.626	1526.19
462.732	1463.19
462.838	1605.19
462.945	1682.19
463.051	1636.19
463.157	1553.19
463.264	1587.19
463.37	1574.19
463.476	1412.19
463.583	1397.19
463.689	1372.19
463.795	1355.19
463.901	1472.19
464.008	1518.19
464.114	1368.19
464.22	1325.19
464.326	1426.19
464.433	1280.19
464.539	1354.19
464.645	1259.19
464.751	1526.19
464.857	1259.19
464.963	1123.19
465.07	1219.19
465.176	1143.19
465.282	1056.19
465.388	1172.19
465.494	915.19
465.6	964.19
465.706	932.19
465.812	888.19
465.918	941.19
466.024	924.19
466.131	994.19
466.237	856.19
466.343	703.19
466.449	809.19
466.555	777.19
466.661	766.19
466.767	808.19
466.873	832.19
466.979	950.19
467.085	806.19
467.191	827.19
467.296	760.19
467.402	757.19
467.508	877.19
467.614	933.19
467.72	760.19
467.826	765.19
467.932	725.19
468.038	681.19
468.144	720.19
468.25	718.19
468.355	610.19
468.461	726.19
468.567	696.19
468.673	694.19
468.779	724.19
468.885	728.19
468.99	619.19
469.096	712.19
469.202	869.19
469.308	739.19
469.413	789.19
469.519	758.19
469.625	757.19
469.731	835.19
469.836	738.19
469.942	929.19
470.048	806.19
470.153	770.19
470.259	865.19
470.365	842.19
470.47	872.19
470.576	836.19
470.682	736.19
470.787	693.19
470.893	684.19
470.999	737.19
471.104	756.19
471.21	654.19
471.315	636.19
471.421	617.19
471.527	813.19
471.632	798.19
471.738	715.19
471.843	605.19
471.949	702.19
472.054	667.19
472.16	581.19
472.265	649.19
472.371	640.19
472.476	646.19
472.582	697.19
472.687	667.19
472.793	541.19
472.898	609.19
473.003	612.19
473.109	511.19
473.214	499.19
473.32	582.19
473.425	640.19
473.53	542.19
473.636	588.19
473.741	562.19
473.847	533.19
473.952	599.19
474.057	651.19
474.163	637.19
474.268	527.19
474.373	670.19
474.478	564.19
474.584	493.19
474.689	663.19
474.794	598.19
474.9	843.19
475.005	541.19
475.11	787.19
475.215	558.19
475.321	571.19
475.426	799.19
475.531	735.19
475.636	610.19
475.741	593.19
475.846	687.19
475.952	786.19
476.057	692.19
476.162	693.19
476.267	751.19
476.372	879.19
476.477	662.19
476.582	697.19
476.687	579.19
476.793	659.19
476.898	625.19
477.003	643.19
477.108	637.19
477.213	614.19
477.318	572.19
477.423	688.19
477.528	791.19
477.633	753.19
477.738	703.19
477.843	672.19
477.948	673.19
478.053	671.19
478.158	717.19
478.263	750.19
478.368	694.19
478.473	820.19
478.578	751.19
478.682	697.19
478.787	832.19
478.892	758.19
478.997	783.19
479.102	714.19
479.207	767.19
479.312	853.19
479.417	788.19
479.521	747.19
479.626	811.19
479.731	777.19
479.836	779.19
479.941	913.19
480.045	884.19
480.15	816.19
480.255	851.19
480.36	775.19
480.465	848.19
480.569	975.19
480.674	779.19
480.779	731.19
480.883	791.19
480.988	791.19
481.093	747.19
481.197	838.19
481.302	774.19
481.407	804.19
481.511	2694.19
481.616	931.19
481.721	766.19
481.825	952.19
481.93	787.19
482.035	711.19
482.139	772.19
482.244	834.19
482.348	743.19
482.453	753.19
482.557	821.19
482.662	785.19
482.767	703.19
482.871	720.19
482.976	725.19
483.08	723.19
483.185	913.19
483.289	791.19
483.394	791.19
483.498	790.19
483.603	812.19
483.707	829.19
483.811	864.19
483.916	940.19
484.02	814.19
484.125	898.19
484.229	847.19
484.333	931.19
484.438	792.19
484.542	815.19
484.647	839.19
484.751	836.19
484.855	813.19
484.96	895.19
485.064	905.19
485.168	851.19
485.273	857.19
485.377	871.19
485.481	1062.19
485.585	897.19
485.69	914.19
485.794	960.19
485.898	912.19
486.002	976.19
486.107	912.19
486.211	908.19
486.315	962.19
486.419	1006.19
486.524	942.19
486.628	939.19
486.732	933.19
486.836	888.19
486.94	963.19
487.044	940.19
487.148	894.19
487.253	846.19
487.357	925.19
487.461	1044.19
487.565	924.19
487.669	967.19
487.773	913.19
487.877	1013.19
487.981	1026.19
488.085	955.19
488.189	932.19
488.293	1071.19
488.397	1479.19
488.501	972.19
488.605	916.19
488.709	942.19
488.813	884.19
488.917	865.19
489.021	929.19
489.125	1221.19
489.229	921.19
489.333	1073.19
489.437	968.19
489.541	945.19
489.645	891.19
489.749	951.19
489.853	1027.19
489.956	948.19
490.06	1052.19
490.164	960.19
490.268	910.19
490.372	996.19
490.476	934.19
490.579	929.19
490.683	1575.19
490.787	1052.19
490.891	931.19
490.995	984.19
491.098	1029.19
491.202	943.19
491.306	974.19
491.41	1035.19
491.513	896.19
491.617	914.19
491.721	1155.19
491.824	1213.19
491.928	957.19
492.032	1235.19
492.136	983.19
492.239	896.19
492.343	898.19
492.446	1345.19
492.55	1015.19
492.654	909.19
492.757	939.19
492.861	992.19
492.965	982.19
493.068	1007.19
493.172	918.19
493.275	915.19
493.379	897.19
493.482	1056.19
493.586	1089.19
493.689	1233.19
493.793	992.19
493.896	1089.19
494	1078.19
494.103	1090.19
494.207	1273.19
494.31	1378.19
494.414	1072.19
494.517	1023.19
494.621	905.19
494.724	982.19
494.828	966.19
494.931	894.19
495.034	915.19
495.138	1137.19
495.241	927.19
495.345	1810.19
495.448	1151.19
495.551	923.19
495.655	903.19
495.758	891.19
495.861	873.19
495.965	897.19
496.068	976.19
496.171	1058.19
496.274	916.19
496.378	905.19
496.481	1006.19
496.584	963.19
496.687	1005.19
496.791	1055.19
496.894	999.19
496.997	976.19
497.1	1009.19
497.204	1028.19
497.307	912.19
497.41	1218.19
497.513	1286.19
497.616	1032.19
497.719	1016.19
497.823	1046.19
497.926	1093.19
498.029	1106.19
498.132	1203.19
498.235	1190.19
498.338	1234.19
498.441	1330.19
498.544	1254.19
498.647	1253.19
498.75	1477.19
498.853	1620.19
498.956	1482.19
499.059	1768.19
499.163	1650.19
499.266	1715.19
499.369	1771.19
499.471	1899.19
499.574	2089.19
499.677	2110.19
499.78	2200.19
499.883	2374.19
499.986	2590.19
500.089	2585.19
500.192	2795.19
500.295	2807.19
500.398	2718.19
500.501	2750.19
500.604	2533.19
500.707	2393.19
500.809	2330.19
500.912	2271.19
501.015	2129.19
501.118	1972.19
501.221	1924.19
501.324	1697.19
501.426	1607.19
501.529	1581.19
501.632	1508.19
501.735	1360.19
501.837	1343.19
501.94	1231.19
502.043	1174.19
502.146	1276.19
502.248	1182.19
502.351	1080.19
502.454	1151.19
502.557	1052.19
502.659	1054.19
502.762	1020.19
502.865	1009.19
502.967	924.19
503.07	951.19
503.173	1050.19
503.275	903.19
503.378	931.19
503.48	944.19
503.583	967.19
503.686	933.19
503.788	1183.19
503.891	917.19
503.993	1093.19
504.096	924.19
504.198	979.19
504.301	867.19
504.403	938.19
504.506	967.19
504.608	901.19
504.711	878.19
504.813	964.19
504.916	887.19
505.018	789.19
505.121	752.19
505.223	810.19
505.326	774.19
505.428	877.19
505.531	804.19
505.633	743.19
505.735	656.19
505.838	751.19
505.94	709.19
506.042	624.19
506.145	640.19
506.247	772.19
506.35	608.19
506.452	734.19
506.554	777.19
506.656	693.19
506.759	589.19
506.861	751.19
506.963	681.19
507.066	706.19
507.168	827.19
507.27	632.19
507.372	605.19
507.475	648.19
507.577	663.19
507.679	593.19
507.781	588.19
507.883	648.19
507.986	595.19
508.088	652.19
508.19	685.19
508.292	684.19
508.394	604.19
508.496	628.19
508.598	609.19
508.701	579.19
508.803	661.19
508.905	591.19
509.007	597.19
509.109	717.19
509.211	718.19
509.313	533.19
509.415	546.19
509.517	660.19
509.619	548.19
509.721	596.19
509.823	621.19
509.925	719.19
510.027	621.19
510.129	652.19
510.231	682.19
510.333	560.19
510.435	565.19
510.537	635.19
510.639	672.19
510.741	583.19
510.843	729.19
510.945	584.19
511.047	698.19
511.148	673.19
511.25	579.19
511.352	587.19
511.454	551.19
511.556	664.19
511.658	575.19
511.76	731.19
511.861	760.19
511.963	567.19
512.065	588.19
512.167	606.19
512.268	737.19
512.37	643.19
512.472	609.19
512.574	681.19
512.676	669.19
512.777	626.19
512.879	613.19
512.981	561.19
513.082	644.19
513.184	642.19
513.286	1032.19
513.387	695.19
513.489	835.19
513.591	707.19
513.692	677.19
513.794	665.19
513.896	536.19
513.997	542.19
514.099	564.19
514.2	644.19
514.302	637.19
514.404	624.19
514.505	664.19
514.607	693.19
514.708	637.19
514.81	734.19
514.911	731.19
515.013	728.19
515.114	734.19
515.216	637.19
515.317	706.19
515.419	651.19
515.52	696.19
515.622	675.19
515.723	678.19
515.825	833.19
515.926	763.19
516.027	669.19
516.129	724.19
516.23	744.19
516.332	782.19
516.433	754.19
516.534	845.19
516.636	707.19
516.737	776.19
516.838	1937.19
516.94	1028.19
517.041	894.19
517.142	1101.19
517.244	1059.19
517.345	1017.19
517.446	1080.19
517.547	1046.19
517.649	943.19
517.75	1067.19
517.851	955.19
517.952	1237.19
518.054	994.19
518.155	1104.19
518.256	902.19
518.357	1010.19
518.458	916.19
518.56	782.19
518.661	832.19
518.762	860.19
518.863	900.19
518.964	934.19
519.065	782.19
519.166	785.19
519.268	699.19
519.369	1025.19
519.47	834.19
519.571	777.19
519.672	715.19
519.773	738.19
519.874	735.19
519.975	808.19
520.076	766.19
520.177	799.19
520.278	728.19
520.379	788.19
520.48	651.19
520.581	660.19
520.682	664.19
520.783	705.19
520.884	756.19
520.985	766.19
521.086	706.19
521.187	743.19
521.288	665.19
521.389	781.19
521.489	675.19
521.59	703.19
521.691	731.19
521.792	672.19
521.893	785.19
521.994	849.19
522.095	816.19
522.195	780.19
522.296	853.19
522.397	872.19
522.498	749.19
522.599	669.19
522.699	748.19
522.8	734.19
522.901	801.19
523.002	766.19
523.102	923.19
523.203	736.19
523.304	898.19
523.405	765.19
523.505	727.19
523.606	731.19
523.707	843.19
523.807	728.19
523.908	735.19
524.009	897.19
524.109	775.19
524.21	707.19
524.31	824.19
524.411	913.19
524.512	837.19
524.612	769.19
524.713	960.19
524.813	720.19
524.914	989.19
525.014	6878.19
525.115	1285.19
525.216	682.19
525.316	812.19
525.417	833.19
525.517	695.19
525.618	724.19
525.718	718.19
525.819	693.19
525.919	779.19
526.019	744.19
526.12	806.19
526.22	706.19
526.321	721.19
526.421	648.19
526.522	694.19
526.622	662.19
526.722	683.19
526.823	726.19
526.923	787.19
527.023	868.19
527.124	659.19
527.224	829.19
527.324	654.19
527.425	736.19
527.525	642.19
527.625	754.19
527.726	715.19
527.826	815.19
527.926	763.19
528.026	728.19
528.127	642.19
528.227	764.19
528.327	848.19
528.427	727.19
528.528	801.19
528.628	821.19
528.728	790.19
528.828	847.19
528.928	915.19
529.029	778.19
529.129	782.19
529.229	837.19
529.329	782.19
529.429	816.19
529.529	831.19
529.629	848.19
529.729	737.19
529.829	928.19
529.93	764.19
530.03	808.19
530.13	801.19
530.23	807.19
530.33	900.19
530.43	681.19
530.53	768.19
530.63	759.19
530.73	622.19
530.83	636.19
530.93	692.19
531.03	642.19
531.13	789.19
531.23	676.19
531.33	759.19
531.429	797.19
531.529	919.19
531.629	715.19
531.729	626.19
531.829	693.19
531.929	672.19
532.029	674.19
532.129	628.19
532.229	782.19
532.328	654.19
532.428	672.19
532.528	688.19
532.628	652.19
532.728	721.19
532.827	703.19
532.927	742.19
533.027	636.19
533.127	848.19
533.227	761.19
533.326	669.19
533.426	669.19
533.526	894.19
533.625	838.19
533.725	1017.19
533.825	838.19
533.924	612.19
534.024	568.19
534.124	638.19
534.223	698.19
534.323	1076.19
534.423	741.19
534.522	723.19
534.622	577.19
534.722	640.19
534.821	741.19
534.921	618.19
535.02	610.19
535.12	798.19
535.219	763.19
535.319	791.19
535.419	807.19
535.518	615.19
535.618	657.19
535.717	739.19
535.817	601.19
535.916	534.19
536.016	646.19
536.115	626.19
536.215	586.19
536.314	578.19
536.413	567.19
536.513	577.19
536.612	543.19
536.712	552.19
536.811	547.19
536.91	521.19
537.01	545.19
537.109	670.19
537.209	584.19
537.308	564.19
537.407	577.19
537.507	610.19
537.606	561.19
537.705	675.19
537.805	575.19
537.904	482.19
538.003	663.19
538.102	684.19
538.202	596.19
538.301	653.19
538.4	678.19
538.499	605.19
538.599	597.19
538.698	885.19
538.797	592.19
538.896	666.19
538.995	672.19
539.095	604.19
539.194	797.19
539.293	639.19
539.392	557.19
539.491	563.19
539.59	584.19
539.689	732.19
539.789	680.19
539.888	479.19
539.987	500.19
540.086	551.19
540.185	569.19
540.284	662.19
540.383	553.19
540.482	496.19
540.581	613.19
540.68	583.19
540.779	651.19
540.878	606.19
540.977	693.19
541.076	584.19
541.175	640.19
541.274	902.19
541.373	711.19
541.472	724.19
541.571	639.19
541.67	1957.19
541.769	827.19
541.868	646.19
541.966	693.19
542.065	611.19
542.164	634.19
542.263	596.19
542.362	610.19
542.461	684.19
542.56	744.19
542.658	707.19
542.757	558.19
542.856	532.19
542.955	518.19
543.054	497.19
543.152	720.19
543.251	575.19
543.35	713.19
543.449	592.19
543.547	652.19
543.646	550.19
543.745	610.19
543.843	723.19
543.942	642.19
544.041	595.19
544.14	671.19
544.238	619.19
544.337	814.19
544.436	706.19
544.534	855.19
544.633	659.19
544.731	639.19
