Data from 42g_HRC06701__17__504.txt Node

Date: Thu Apr 18 02:42:20 CDT 2024
User: Estudiantes 2
Spectrometer: HR+C0670
Trigger mode: 4
Integration Time (sec): 1.000000E0
Scans to average: 1
Electric dark correction enabled: true
Nonlinearity correction enabled: false
Boxcar width: 0
XAxis mode: Wavelengths
Number of Pixels in Spectrum: 2048
>>>>>Begin Spectral Data<<<<<
407.81	-143.25
407.921	-143.25
408.032	-143.25
408.143	-150.25
408.254	-128.25
408.365	58.75
408.476	279.75
408.587	-48.25
408.699	29.75
408.81	-39.25
408.921	-43.25
409.032	4.75
409.143	20.75
409.254	36.75
409.365	99.75
409.476	-53.25
409.587	-16.25
409.698	91.75
409.809	117.75
409.92	-77.25
410.031	-41.25
410.142	89.75
410.253	36.75
410.364	15.75
410.475	332.75
410.585	1640.75
410.696	1833.75
410.807	1883.75
410.918	1821.75
411.029	1822.75
411.14	1858.75
411.251	1869.75
411.362	1887.75
411.472	1913.75
411.583	1923.75
411.694	1930.75
411.805	1876.75
411.916	1959.75
412.026	1922.75
412.137	1974.75
412.248	1934.75
412.359	1823.75
412.47	1754.75
412.58	1783.75
412.691	1920.75
412.802	1891.75
412.912	1800.75
413.023	1818.75
413.134	1862.75
413.245	1915.75
413.355	1848.75
413.466	1802.75
413.577	1770.75
413.687	1938.75
413.798	1756.75
413.909	1884.75
414.019	1865.75
414.13	1885.75
414.24	1835.75
414.351	1934.75
414.462	2169.75
414.572	1938.75
414.683	1917.75
414.793	1953.75
414.904	2216.75
415.014	1852.75
415.125	1833.75
415.235	1878.75
415.346	2033.75
415.456	2042.75
415.567	1919.75
415.677	1896.75
415.788	1937.75
415.898	1925.75
416.009	1865.75
416.119	1955.75
416.23	1895.75
416.34	1844.75
416.45	1844.75
416.561	2769.75
416.671	1989.75
416.782	1767.75
416.892	1920.75
417.002	2013.75
417.113	2050.75
417.223	1983.75
417.333	2039.75
417.444	1881.75
417.554	1961.75
417.664	2036.75
417.775	1904.75
417.885	1991.75
417.995	2074.75
418.106	2233.75
418.216	2110.75
418.326	2179.75
418.436	2144.75
418.547	2150.75
418.657	2160.75
418.767	2376.75
418.877	2233.75
418.987	2169.75
419.098	2288.75
419.208	2214.75
419.318	2244.75
419.428	2308.75
419.538	2221.75
419.648	2247.75
419.759	2200.75
419.869	2322.75
419.979	2161.75
420.089	2207.75
420.199	2190.75
420.309	2238.75
420.419	2324.75
420.529	2281.75
420.639	2766.75
420.749	2284.75
420.859	2318.75
420.969	2353.75
421.079	2587.75
421.189	2307.75
421.299	2394.75
421.409	2297.75
421.519	2350.75
421.629	2509.75
421.739	2333.75
421.849	2368.75
421.959	2332.75
422.069	2429.75
422.179	2406.75
422.289	2459.75
422.399	2565.75
422.509	2622.75
422.619	6385.75
422.729	2860.75
422.838	2457.75
422.948	2601.75
423.058	2637.75
423.168	2593.75
423.278	2741.75
423.388	2714.75
423.498	2735.75
423.607	2747.75
423.717	3060.75
423.827	3005.75
423.937	2836.75
424.046	2887.75
424.156	3050.75
424.266	2822.75
424.376	3087.75
424.485	3072.75
424.595	2828.75
424.705	2809.75
424.815	2921.75
424.924	3275.75
425.034	2963.75
425.144	2809.75
425.253	2948.75
425.363	2914.75
425.473	2945.75
425.582	2830.75
425.692	2832.75
425.801	2773.75
425.911	3121.75
426.021	2978.75
426.13	3049.75
426.24	3183.75
426.349	3063.75
426.459	2992.75
426.568	2971.75
426.678	3188.75
426.787	3083.75
426.897	3019.75
427.006	3104.75
427.116	3073.75
427.225	3056.75
427.335	3170.75
427.444	3085.75
427.554	3115.75
427.663	3227.75
427.773	3136.75
427.882	3229.75
427.992	3180.75
428.101	3260.75
428.21	3128.75
428.32	3196.75
428.429	3215.75
428.539	3520.75
428.648	3188.75
428.757	3291.75
428.867	3276.75
428.976	3480.75
429.085	3414.75
429.195	3327.75
429.304	3293.75
429.413	3387.75
429.523	3578.75
429.632	3360.75
429.741	3415.75
429.85	3423.75
429.96	3483.75
430.069	3432.75
430.178	3510.75
430.287	3795.75
430.397	3539.75
430.506	3458.75
430.615	3497.75
430.724	3590.75
430.833	3611.75
430.943	3650.75
431.052	3592.75
431.161	3633.75
431.27	3808.75
431.379	3709.75
431.488	3983.75
431.597	4019.75
431.706	3953.75
431.816	3981.75
431.925	3894.75
432.034	3845.75
432.143	3972.75
432.252	3952.75
432.361	3915.75
432.47	3875.75
432.579	3990.75
432.688	3844.75
432.797	3945.75
432.906	3821.75
433.015	4002.75
433.124	4320.75
433.233	3987.75
433.342	4046.75
433.451	4043.75
433.56	3981.75
433.669	4020.75
433.778	4031.75
433.886	4033.75
433.995	4107.75
434.104	4381.75
434.213	4198.75
434.322	4285.75
434.431	4466.75
434.54	4484.75
434.649	4658.75
434.757	4679.75
434.866	4478.75
434.975	4515.75
435.084	4459.75
435.193	4375.75
435.301	4519.75
435.41	4448.75
435.519	4563.75
435.628	3976.75
435.737	3911.75
435.845	3873.75
435.954	3764.75
436.063	3857.75
436.171	3823.75
436.28	3924.75
436.389	4019.75
436.498	3718.75
436.606	3891.75
436.715	3961.75
436.823	3679.75
436.932	3658.75
437.041	3661.75
437.149	3642.75
437.258	3640.75
437.367	3510.75
437.475	3467.75
437.584	3822.75
437.692	3476.75
437.801	5202.75
437.91	3596.75
438.018	3427.75
438.127	3332.75
438.235	3520.75
438.344	3519.75
438.452	3518.75
438.561	3489.75
438.669	3399.75
438.778	3344.75
438.886	3409.75
438.995	3346.75
439.103	3561.75
439.212	3418.75
439.32	3553.75
439.428	3517.75
439.537	3576.75
439.645	3596.75
439.754	3626.75
439.862	3391.75
439.97	3614.75
440.079	3555.75
440.187	3434.75
440.295	3713.75
440.404	3624.75
440.512	3703.75
440.62	3686.75
440.729	3796.75
440.837	3861.75
440.945	4540.75
441.054	3997.75
441.162	3997.75
441.27	4059.75
441.378	3981.75
441.487	4046.75
441.595	4553.75
441.703	4271.75
441.811	4060.75
441.92	3960.75
442.028	3855.75
442.136	3956.75
442.244	4042.75
442.352	3915.75
442.461	3789.75
442.569	3791.75
442.677	3847.75
442.785	3903.75
442.893	3851.75
443.001	3857.75
443.109	3806.75
443.217	3917.75
443.325	3836.75
443.434	4490.75
443.542	4225.75
443.65	4085.75
443.758	4283.75
443.866	4195.75
443.974	4524.75
444.082	4307.75
444.19	4410.75
444.298	4536.75
444.406	4858.75
444.514	4823.75
444.622	4979.75
444.73	4935.75
444.838	4647.75
444.946	4652.75
445.054	4458.75
445.161	4299.75
445.269	4160.75
445.377	4240.75
445.485	4099.75
445.593	3936.75
445.701	4166.75
445.809	4064.75
445.917	3840.75
446.025	3819.75
446.132	4122.75
446.24	3992.75
446.348	3861.75
446.456	3826.75
446.564	3768.75
446.671	3797.75
446.779	3887.75
446.887	3793.75
446.995	3794.75
447.102	3827.75
447.21	3764.75
447.318	3725.75
447.426	3773.75
447.533	3970.75
447.641	5153.75
447.749	3814.75
447.856	3711.75
447.964	3780.75
448.072	3880.75
448.179	3708.75
448.287	3799.75
448.395	3757.75
448.502	3713.75
448.61	3927.75
448.718	3684.75
448.825	3816.75
448.933	3793.75
449.04	3648.75
449.148	3797.75
449.256	3779.75
449.363	3865.75
449.471	3867.75
449.578	3900.75
449.686	3806.75
449.793	3957.75
449.901	3960.75
450.008	3996.75
450.116	3996.75
450.223	4059.75
450.331	4215.75
450.438	4129.75
450.546	4264.75
450.653	4372.75
450.76	4277.75
450.868	4339.75
450.975	4626.75
451.083	4347.75
451.19	4412.75
451.297	4396.75
451.405	4449.75
451.512	4394.75
451.619	4567.75
451.727	4675.75
451.834	4393.75
451.941	4426.75
452.049	4458.75
452.156	4487.75
452.263	4461.75
452.371	4540.75
452.478	4552.75
452.585	4647.75
452.692	4538.75
452.8	4638.75
452.907	4770.75
453.014	4663.75
453.121	4695.75
453.229	4615.75
453.336	4788.75
453.443	4827.75
453.55	4617.75
453.657	4673.75
453.765	4894.75
453.872	4744.75
453.979	4840.75
454.086	4861.75
454.193	4934.75
454.3	4778.75
454.407	5023.75
454.514	5135.75
454.621	4810.75
454.729	4819.75
454.836	4953.75
454.943	4887.75
455.05	4916.75
455.157	5055.75
455.264	4966.75
455.371	5116.75
455.478	5030.75
455.585	6612.75
455.692	5228.75
455.799	5293.75
455.906	5142.75
456.013	5119.75
456.12	5105.75
456.227	5222.75
456.334	5216.75
456.44	5335.75
456.547	5293.75
456.654	5160.75
456.761	5276.75
456.868	5437.75
456.975	5483.75
457.082	5458.75
457.189	5283.75
457.296	5567.75
457.402	5345.75
457.509	5361.75
457.616	5530.75
457.723	5819.75
457.83	5746.75
457.936	5820.75
458.043	6113.75
458.15	5831.75
458.257	6064.75
458.363	6122.75
458.47	6247.75
458.577	6329.75
458.684	6419.75
458.79	6625.75
458.897	6651.75
459.004	6972.75
459.11	6876.75
459.217	6825.75
459.324	6968.75
459.43	7298.75
459.537	7447.75
459.644	7421.75
459.75	7545.75
459.857	8063.75
459.964	7759.75
460.07	7883.75
460.177	8087.75
460.283	8130.75
460.39	8433.75
460.496	8051.75
460.603	8334.75
460.71	8073.75
460.816	8113.75
460.923	8014.75
461.029	8084.75
461.136	8218.75
461.242	7991.75
461.349	8161.75
461.455	8167.75
461.562	8401.75
461.668	8332.75
461.774	8217.75
461.881	8509.75
461.987	8611.75
462.094	8940.75
462.2	9055.75
462.307	8899.75
462.413	8855.75
462.519	9411.75
462.626	9788.75
462.732	10027.75
462.838	10617.75
462.945	10864.75
463.051	10809.75
463.157	10480.75
463.264	10231.75
463.37	9773.75
463.476	9552.75
463.583	9471.75
463.689	9249.75
463.795	9440.75
463.901	9480.75
464.008	9632.75
464.114	9367.75
464.22	9327.75
464.326	9263.75
464.433	8821.75
464.539	8817.75
464.645	8504.75
464.751	8585.75
464.857	8294.75
464.963	7890.75
465.07	7650.75
465.176	7336.75
465.282	7132.75
465.388	6996.75
465.494	6648.75
465.6	6545.75
465.706	6319.75
465.812	6286.75
465.918	6383.75
466.024	6264.75
466.131	6136.75
466.237	6016.75
466.343	5875.75
466.449	5767.75
466.555	5712.75
466.661	5565.75
466.767	5611.75
466.873	5598.75
466.979	5752.75
467.085	5603.75
467.191	5580.75
467.296	5579.75
467.402	5383.75
467.508	5416.75
467.614	5580.75
467.72	5325.75
467.826	5156.75
467.932	5134.75
468.038	5095.75
468.144	5029.75
468.25	4952.75
468.355	5030.75
468.461	5021.75
468.567	5031.75
468.673	4951.75
468.779	5033.75
468.885	4959.75
468.99	5010.75
469.096	5111.75
469.202	5058.75
469.308	5086.75
469.413	5377.75
469.519	5151.75
469.625	5096.75
469.731	5208.75
469.836	5188.75
469.942	5498.75
470.048	5401.75
470.153	5404.75
470.259	5231.75
470.365	5417.75
470.47	5320.75
470.576	5135.75
470.682	5253.75
470.787	5122.75
470.893	4904.75
470.999	4967.75
471.104	5019.75
471.21	4752.75
471.315	4644.75
471.421	4643.75
471.527	4860.75
471.632	4738.75
471.738	4651.75
471.843	4554.75
471.949	4458.75
472.054	4461.75
472.16	4508.75
472.265	4386.75
472.371	4287.75
472.476	4370.75
472.582	4441.75
472.687	4262.75
472.793	4239.75
472.898	4252.75
473.003	4143.75
473.109	4176.75
473.214	4216.75
473.32	4101.75
473.425	4259.75
473.53	4139.75
473.636	4191.75
473.741	4028.75
473.847	4119.75
473.952	4241.75
474.057	4138.75
474.163	4235.75
474.268	4120.75
474.373	4154.75
474.478	4057.75
474.584	4074.75
474.689	4096.75
474.794	4175.75
474.9	4442.75
475.005	4123.75
475.11	4339.75
475.215	4100.75
475.321	4113.75
475.426	4379.75
475.531	4253.75
475.636	4216.75
475.741	4158.75
475.846	4236.75
475.952	4497.75
476.057	4242.75
476.162	4392.75
476.267	4477.75
476.372	4583.75
476.477	4361.75
476.582	4554.75
476.687	4298.75
476.793	4399.75
476.898	4362.75
477.003	4575.75
477.108	4517.75
477.213	4567.75
477.318	4561.75
477.423	4651.75
477.528	4783.75
477.633	4864.75
477.738	4832.75
477.843	4910.75
477.948	4916.75
478.053	4963.75
478.158	4990.75
478.263	5089.75
478.368	5162.75
478.473	5199.75
478.578	5251.75
478.682	5304.75
478.787	5354.75
478.892	5235.75
478.997	5391.75
479.102	5236.75
479.207	5267.75
479.312	5485.75
479.417	5339.75
479.521	5330.75
479.626	5441.75
479.731	5495.75
479.836	5507.75
479.941	5785.75
480.045	5855.75
480.15	5870.75
480.255	5895.75
480.36	6025.75
480.465	5880.75
480.569	5956.75
480.674	5775.75
480.779	5435.75
480.883	5588.75
480.988	5590.75
481.093	5552.75
481.197	5467.75
481.302	5522.75
481.407	5518.75
481.511	7728.75
481.616	5576.75
481.721	5501.75
481.825	5658.75
481.93	5394.75
482.035	5498.75
482.139	5630.75
482.244	5468.75
482.348	5492.75
482.453	5644.75
482.557	5679.75
482.662	5683.75
482.767	5596.75
482.871	5563.75
482.976	5719.75
483.08	5744.75
483.185	5901.75
483.289	5769.75
483.394	5834.75
483.498	6013.75
483.603	5915.75
483.707	6035.75
483.811	6106.75
483.916	6172.75
484.02	5988.75
484.125	6258.75
484.229	6305.75
484.333	6316.75
484.438	6338.75
484.542	6359.75
484.647	6428.75
484.751	6482.75
484.855	6600.75
484.96	6568.75
485.064	6666.75
485.168	6763.75
485.273	6788.75
485.377	6737.75
485.481	7041.75
485.585	6947.75
485.69	6913.75
485.794	6993.75
485.898	7072.75
486.002	6982.75
486.107	7022.75
486.211	6979.75
486.315	7005.75
486.419	7068.75
486.524	7084.75
486.628	6954.75
486.732	6932.75
486.836	7019.75
486.94	7004.75
487.044	7064.75
487.148	7008.75
487.253	6909.75
487.357	7012.75
487.461	7201.75
487.565	6973.75
487.669	7012.75
487.773	6908.75
487.877	7229.75
487.981	7010.75
488.085	7039.75
488.189	7076.75
488.293	7146.75
488.397	7513.75
488.501	7049.75
488.605	6998.75
488.709	7018.75
488.813	7069.75
488.917	6988.75
489.021	7165.75
489.125	7385.75
489.229	7098.75
489.333	7191.75
489.437	7184.75
489.541	7142.75
489.645	7031.75
489.749	7141.75
489.853	7334.75
489.956	7161.75
490.06	7272.75
490.164	7118.75
490.268	7200.75
490.372	7171.75
490.476	7049.75
490.579	7195.75
490.683	7944.75
490.787	7320.75
490.891	7163.75
490.995	7150.75
491.098	7240.75
491.202	7196.75
491.306	7193.75
491.41	7215.75
491.513	7032.75
491.617	7193.75
491.721	7357.75
491.824	7342.75
491.928	7162.75
492.032	7503.75
492.136	7149.75
492.239	7056.75
492.343	7112.75
492.446	7738.75
492.55	7304.75
492.654	7135.75
492.757	7209.75
492.861	7321.75
492.965	7219.75
493.068	7212.75
493.172	7159.75
493.275	7231.75
493.379	7102.75
493.482	7279.75
493.586	7463.75
493.689	7444.75
493.793	7246.75
493.896	7441.75
494	7479.75
494.103	7371.75
494.207	7788.75
494.31	7768.75
494.414	7339.75
494.517	7316.75
494.621	7284.75
494.724	7206.75
494.828	7136.75
494.931	7182.75
495.034	7144.75
495.138	7287.75
495.241	6940.75
495.345	8004.75
495.448	7346.75
495.551	7024.75
495.655	7140.75
495.758	7071.75
495.861	7075.75
495.965	7219.75
496.068	7195.75
496.171	7274.75
496.274	7264.75
496.378	7264.75
496.481	7326.75
496.584	7307.75
496.687	7467.75
496.791	7444.75
496.894	7397.75
496.997	7492.75
497.1	7682.75
497.204	7766.75
497.307	7738.75
497.41	7920.75
497.513	8071.75
497.616	7967.75
497.719	8059.75
497.823	8170.75
497.926	8348.75
498.029	8561.75
498.132	8747.75
498.235	8985.75
498.338	9254.75
498.441	9467.75
498.544	9788.75
498.647	10088.75
498.75	10565.75
498.853	10789.75
498.956	11172.75
499.059	11699.75
499.163	11866.75
499.266	12474.75
499.369	13025.75
499.471	13497.75
499.574	14254.75
499.677	14581.75
499.78	14581.75
499.883	14581.75
499.986	14581.75
500.089	14581.75
500.192	14581.75
500.295	14581.75
500.398	14581.75
500.501	14581.75
500.604	14581.75
500.707	14581.75
500.809	14581.75
500.912	14581.75
501.015	14378.75
501.118	13361.75
501.221	12846.75
501.324	12120.75
501.426	11618.75
501.529	11005.75
501.632	10554.75
501.735	10062.75
501.837	9788.75
501.94	9473.75
502.043	9178.75
502.146	8946.75
502.248	8857.75
502.351	8468.75
502.454	8332.75
502.557	8087.75
502.659	7996.75
502.762	7645.75
502.865	7431.75
502.967	7260.75
503.07	7195.75
503.173	7168.75
503.275	6941.75
503.378	7020.75
503.48	6791.75
503.583	6829.75
503.686	6851.75
503.788	6983.75
503.891	6858.75
503.993	7014.75
504.096	6778.75
504.198	6907.75
504.301	6854.75
504.403	6926.75
504.506	6715.75
504.608	6560.75
504.711	6457.75
504.813	6336.75
504.916	6016.75
505.018	6040.75
505.121	5702.75
505.223	5724.75
505.326	5591.75
505.428	5579.75
505.531	5393.75
505.633	5434.75
505.735	5292.75
505.838	5168.75
505.94	5188.75
506.042	5192.75
506.145	5084.75
506.247	5106.75
506.35	5059.75
506.452	5001.75
506.554	5127.75
506.656	5087.75
506.759	4949.75
506.861	4950.75
506.963	4913.75
507.066	5022.75
507.168	5115.75
507.27	4817.75
507.372	4796.75
507.475	4716.75
507.577	4785.75
507.679	4755.75
507.781	4596.75
507.883	4635.75
507.986	4590.75
508.088	4658.75
508.19	4612.75
508.292	4624.75
508.394	4636.75
508.496	4549.75
508.598	4533.75
508.701	4580.75
508.803	4551.75
508.905	4377.75
509.007	4583.75
509.109	4513.75
509.211	4565.75
509.313	4463.75
509.415	4465.75
509.517	4522.75
509.619	4360.75
509.721	4502.75
509.823	4402.75
509.925	4646.75
510.027	4575.75
510.129	4439.75
510.231	4462.75
510.333	4422.75
510.435	4377.75
510.537	4359.75
510.639	4631.75
510.741	4459.75
510.843	4445.75
510.945	4374.75
511.047	4527.75
511.148	4404.75
511.25	4369.75
511.352	4472.75
511.454	4328.75
511.556	4552.75
511.658	4476.75
511.76	4494.75
511.861	4512.75
511.963	4355.75
512.065	4391.75
512.167	4332.75
512.268	4568.75
512.37	4452.75
512.472	4460.75
512.574	4566.75
512.676	4611.75
512.777	4340.75
512.879	4341.75
512.981	4424.75
513.082	4506.75
513.184	4516.75
513.286	5040.75
513.387	4611.75
513.489	4702.75
513.591	4515.75
513.692	4691.75
513.794	4631.75
513.896	4546.75
513.997	4603.75
514.099	4568.75
514.2	4639.75
514.302	4739.75
514.404	4716.75
514.505	4666.75
514.607	4831.75
514.708	4711.75
514.81	4695.75
514.911	4889.75
515.013	5075.75
515.114	4892.75
515.216	4895.75
515.317	5006.75
515.419	4875.75
515.52	5048.75
515.622	5058.75
515.723	5232.75
515.825	5471.75
515.926	5323.75
516.027	5332.75
516.129	5414.75
516.23	5586.75
516.332	5687.75
516.433	5793.75
516.534	5958.75
516.636	6033.75
516.737	5934.75
516.838	7450.75
516.94	6626.75
517.041	6582.75
517.142	6784.75
517.244	6935.75
517.345	6946.75
517.446	7127.75
517.547	7205.75
517.649	7051.75
517.75	7092.75
517.851	7002.75
517.952	7337.75
518.054	6825.75
518.155	6941.75
518.256	6607.75
518.357	6706.75
518.458	6305.75
518.56	6218.75
518.661	6205.75
518.762	6068.75
518.863	6171.75
518.964	5987.75
519.065	5808.75
519.166	5682.75
519.268	5627.75
519.369	5886.75
519.47	5518.75
519.571	5605.75
519.672	5525.75
519.773	5424.75
519.874	5496.75
519.975	5545.75
520.076	5434.75
520.177	5447.75
520.278	5421.75
520.379	5344.75
520.48	5123.75
520.581	5352.75
520.682	5274.75
520.783	5297.75
520.884	5333.75
520.985	5281.75
521.086	5182.75
521.187	5277.75
521.288	5163.75
521.389	5251.75
521.489	5168.75
521.59	5180.75
521.691	5187.75
521.792	5097.75
521.893	5370.75
521.994	5368.75
522.095	5188.75
522.195	5284.75
522.296	5159.75
522.397	5267.75
522.498	5196.75
522.599	5134.75
522.699	5148.75
522.8	5086.75
522.901	5216.75
523.002	5058.75
523.102	5386.75
523.203	5200.75
523.304	5420.75
523.405	5087.75
523.505	5098.75
523.606	5193.75
523.707	5224.75
523.807	5230.75
523.908	5220.75
524.009	5211.75
524.109	5191.75
524.21	5167.75
524.31	5185.75
524.411	5318.75
524.512	5292.75
524.612	5194.75
524.713	5386.75
524.813	5196.75
524.914	5471.75
525.014	11393.75
525.115	5641.75
525.216	5167.75
525.316	5263.75
525.417	5241.75
525.517	5256.75
525.618	5327.75
525.718	5246.75
525.819	5209.75
525.919	5196.75
526.019	5239.75
526.12	5291.75
526.22	5186.75
526.321	5158.75
526.421	5232.75
526.522	5284.75
526.622	5194.75
526.722	5195.75
526.823	5330.75
526.923	5225.75
527.023	5292.75
527.124	5278.75
527.224	5276.75
527.324	5169.75
527.425	5213.75
527.525	5192.75
527.625	5192.75
527.726	5156.75
527.826	5319.75
527.926	5264.75
528.026	5265.75
528.127	5227.75
528.227	5243.75
528.327	5305.75
528.427	5286.75
528.528	5246.75
528.628	5282.75
528.728	5218.75
528.828	5312.75
528.928	5296.75
529.029	5160.75
529.129	5286.75
529.229	5138.75
529.329	5199.75
529.429	5377.75
529.529	5353.75
529.629	5271.75
529.729	5263.75
529.829	5367.75
529.93	5182.75
530.03	5358.75
530.13	5268.75
530.23	5315.75
530.33	5318.75
530.43	5359.75
530.53	5226.75
530.63	5282.75
530.73	5210.75
530.83	5034.75
530.93	5031.75
531.03	5253.75
531.13	5215.75
531.23	5186.75
531.33	5163.75
531.429	5346.75
531.529	5375.75
531.629	5157.75
531.729	5104.75
531.829	5103.75
531.929	5096.75
532.029	5124.75
532.129	5096.75
532.229	5143.75
532.328	5098.75
532.428	5105.75
532.528	5013.75
532.628	4838.75
532.728	5030.75
532.827	4972.75
532.927	5078.75
533.027	4974.75
533.127	5133.75
533.227	5089.75
533.326	4996.75
533.426	4829.75
533.526	5060.75
533.625	5161.75
533.725	5199.75
533.825	4909.75
533.924	4764.75
534.024	4788.75
534.124	4792.75
534.223	4878.75
534.323	5399.75
534.423	4844.75
534.522	4807.75
534.622	4797.75
534.722	4687.75
534.821	4731.75
534.921	4663.75
535.02	4623.75
535.12	4750.75
535.219	4758.75
535.319	4722.75
535.419	4753.75
535.518	4555.75
535.618	4663.75
535.717	4746.75
535.817	4434.75
535.916	4409.75
536.016	4513.75
536.115	4398.75
536.215	4412.75
536.314	4369.75
536.413	4295.75
536.513	4340.75
536.612	4370.75
536.712	4168.75
536.811	4174.75
536.91	4315.75
537.01	4205.75
537.109	4265.75
537.209	4367.75
537.308	4275.75
537.407	4204.75
537.507	4274.75
537.606	4135.75
537.705	4212.75
