Data from 21g_HRC06701__90__334.txt Node

Date: Thu Apr 18 02:09:09 CDT 2024
User: Estudiantes 2
Spectrometer: HR+C0670
Trigger mode: 4
Integration Time (sec): 1.000000E0
Scans to average: 1
Electric dark correction enabled: true
Nonlinearity correction enabled: false
Boxcar width: 0
XAxis mode: Wavelengths
Number of Pixels in Spectrum: 2048
>>>>>Begin Spectral Data<<<<<
407.81	-127.62
407.921	-127.62
408.032	-127.62
408.143	-166.62
408.254	-115.62
408.365	10.38
408.476	240.38
408.587	-6.62
408.699	-34.62
408.81	-30.62
408.921	-32.62
409.032	-32.62
409.143	13.38
409.254	47.38
409.365	127.38
409.476	-16.62
409.587	27.38
409.698	97.38
409.809	89.38
409.92	-41.62
410.031	13.38
410.142	75.38
410.253	-7.62
410.364	59.38
410.475	-35.62
410.585	117.38
410.696	118.38
410.807	130.38
410.918	90.38
411.029	156.38
411.14	187.38
411.251	74.38
411.362	183.38
411.472	217.38
411.583	161.38
411.694	190.38
411.805	130.38
411.916	137.38
412.026	179.38
412.137	143.38
412.248	179.38
412.359	73.38
412.47	88.38
412.58	131.38
412.691	138.38
412.802	138.38
412.912	171.38
413.023	93.38
413.134	111.38
413.245	217.38
413.355	112.38
413.466	91.38
413.577	147.38
413.687	236.38
413.798	79.38
413.909	192.38
414.019	160.38
414.13	137.38
414.24	131.38
414.351	222.38
414.462	268.38
414.572	151.38
414.683	197.38
414.793	119.38
414.904	444.38
415.014	173.38
415.125	114.38
415.235	147.38
415.346	248.38
415.456	282.38
415.567	140.38
415.677	148.38
415.788	212.38
415.898	120.38
416.009	110.38
416.119	212.38
416.23	133.38
416.34	102.38
416.45	161.38
416.561	987.38
416.671	275.38
416.782	78.38
416.892	124.38
417.002	170.38
417.113	180.38
417.223	220.38
417.333	51.38
417.444	152.38
417.554	162.38
417.664	188.38
417.775	79.38
417.885	123.38
417.995	177.38
418.106	264.38
418.216	187.38
418.326	223.38
418.436	118.38
418.547	81.38
418.657	111.38
418.767	210.38
418.877	145.38
418.987	154.38
419.098	155.38
419.208	141.38
419.318	210.38
419.428	261.38
419.538	139.38
419.648	191.38
419.759	240.38
419.869	216.38
419.979	144.38
420.089	205.38
420.199	108.38
420.309	181.38
420.419	237.38
420.529	141.38
420.639	640.38
420.749	246.38
420.859	235.38
420.969	204.38
421.079	412.38
421.189	279.38
421.299	209.38
421.409	129.38
421.519	306.38
421.629	272.38
421.739	170.38
421.849	168.38
421.959	123.38
422.069	189.38
422.179	147.38
422.289	176.38
422.399	142.38
422.509	248.38
422.619	2712.38
422.729	424.38
422.838	121.38
422.948	241.38
423.058	123.38
423.168	153.38
423.278	212.38
423.388	202.38
423.498	200.38
423.607	215.38
423.717	467.38
423.827	470.38
423.937	222.38
424.046	334.38
424.156	263.38
424.266	162.38
424.376	446.38
424.485	363.38
424.595	216.38
424.705	207.38
424.815	202.38
424.924	567.38
425.034	286.38
425.144	161.38
425.253	222.38
425.363	220.38
425.473	296.38
425.582	151.38
425.692	180.38
425.801	231.38
425.911	323.38
426.021	230.38
426.13	344.38
426.24	427.38
426.349	314.38
426.459	251.38
426.568	212.38
426.678	312.38
426.787	211.38
426.897	230.38
427.006	222.38
427.116	274.38
427.225	236.38
427.335	269.38
427.444	165.38
427.554	307.38
427.663	259.38
427.773	219.38
427.882	271.38
427.992	209.38
428.101	176.38
428.21	206.38
428.32	273.38
428.429	127.38
428.539	474.38
428.648	266.38
428.757	320.38
428.867	242.38
428.976	395.38
429.085	269.38
429.195	172.38
429.304	261.38
429.413	341.38
429.523	276.38
429.632	272.38
429.741	339.38
429.85	211.38
429.96	239.38
430.069	283.38
430.178	226.38
430.287	492.38
430.397	305.38
430.506	265.38
430.615	248.38
430.724	272.38
430.833	298.38
430.943	265.38
431.052	283.38
431.161	282.38
431.27	270.38
431.379	198.38
431.488	425.38
431.597	320.38
431.706	336.38
431.816	280.38
431.925	287.38
432.034	248.38
432.143	280.38
432.252	312.38
432.361	382.38
432.47	267.38
432.579	327.38
432.688	271.38
432.797	315.38
432.906	266.38
433.015	307.38
433.124	652.38
433.233	353.38
433.342	355.38
433.451	267.38
433.56	290.38
433.669	305.38
433.778	240.38
433.886	300.38
433.995	330.38
434.104	423.38
434.213	305.38
434.322	300.38
434.431	381.38
434.54	331.38
434.649	475.38
434.757	314.38
434.866	270.38
434.975	380.38
435.084	393.38
435.193	384.38
435.301	605.38
435.41	728.38
435.519	765.38
435.628	349.38
435.737	306.38
435.845	265.38
435.954	227.38
436.063	372.38
436.171	266.38
436.28	297.38
436.389	397.38
436.498	330.38
436.606	298.38
436.715	456.38
436.823	316.38
436.932	250.38
437.041	283.38
437.149	306.38
437.258	184.38
437.367	231.38
437.475	273.38
437.584	471.38
437.692	246.38
437.801	1821.38
437.91	453.38
438.018	258.38
438.127	221.38
438.235	383.38
438.344	285.38
438.452	313.38
438.561	276.38
438.669	246.38
438.778	189.38
438.886	275.38
438.995	222.38
439.103	223.38
439.212	270.38
439.32	267.38
439.428	223.38
439.537	300.38
439.645	392.38
439.754	260.38
439.862	231.38
439.97	325.38
440.079	260.38
440.187	212.38
440.295	412.38
440.404	271.38
440.512	277.38
440.62	343.38
440.729	357.38
440.837	363.38
440.945	922.38
441.054	420.38
441.162	268.38
441.27	362.38
441.378	291.38
441.487	265.38
441.595	625.38
441.703	432.38
441.811	317.38
441.92	268.38
442.028	265.38
442.136	316.38
442.244	324.38
442.352	339.38
442.461	271.38
442.569	220.38
442.677	251.38
442.785	371.38
442.893	259.38
443.001	238.38
443.109	252.38
443.217	263.38
443.325	207.38
443.434	751.38
443.542	542.38
443.65	275.38
443.758	398.38
443.866	322.38
443.974	552.38
444.082	405.38
444.19	335.38
444.298	326.38
444.406	381.38
444.514	350.38
444.622	392.38
444.73	393.38
444.838	364.38
444.946	397.38
445.054	273.38
445.161	305.38
445.269	340.38
445.377	316.38
445.485	319.38
445.593	363.38
445.701	516.38
445.809	419.38
445.917	404.38
446.025	245.38
446.132	357.38
446.24	356.38
446.348	352.38
446.456	246.38
446.564	235.38
446.671	343.38
446.779	283.38
446.887	286.38
446.995	380.38
447.102	355.38
447.21	353.38
447.318	364.38
447.426	273.38
447.533	505.38
447.641	1480.38
447.749	456.38
447.856	277.38
447.964	347.38
448.072	416.38
448.179	262.38
448.287	338.38
448.395	387.38
448.502	252.38
448.61	284.38
448.718	307.38
448.825	349.38
448.933	255.38
449.04	244.38
449.148	348.38
449.256	293.38
449.363	319.38
449.471	353.38
449.578	349.38
449.686	284.38
449.793	448.38
449.901	323.38
450.008	300.38
450.116	362.38
450.223	314.38
450.331	325.38
450.438	338.38
450.546	343.38
450.653	379.38
450.76	376.38
450.868	415.38
450.975	529.38
451.083	352.38
451.19	479.38
451.297	373.38
451.405	373.38
451.512	361.38
451.619	477.38
451.727	487.38
451.834	382.38
451.941	376.38
452.049	360.38
452.156	372.38
452.263	424.38
452.371	343.38
452.478	397.38
452.585	520.38
452.692	329.38
452.8	370.38
452.907	553.38
453.014	429.38
453.121	339.38
453.229	403.38
453.336	448.38
453.443	435.38
453.55	347.38
453.657	459.38
453.765	434.38
453.872	411.38
453.979	496.38
454.086	365.38
454.193	414.38
454.3	394.38
454.407	537.38
454.514	480.38
454.621	364.38
454.729	401.38
454.836	383.38
454.943	453.38
455.05	513.38
455.157	498.38
455.264	402.38
455.371	508.38
455.478	408.38
455.585	591.38
455.692	510.38
455.799	571.38
455.906	419.38
456.013	419.38
456.12	420.38
456.227	408.38
456.334	434.38
456.44	599.38
456.547	440.38
456.654	400.38
456.761	511.38
456.868	507.38
456.975	490.38
457.082	489.38
457.189	405.38
457.296	429.38
457.402	446.38
457.509	404.38
457.616	454.38
457.723	642.38
457.83	527.38
457.936	417.38
458.043	716.38
458.15	546.38
458.257	557.38
458.363	500.38
458.47	492.38
458.577	532.38
458.684	462.38
458.79	559.38
458.897	561.38
459.004	605.38
459.11	498.38
459.217	551.38
459.324	607.38
459.43	677.38
459.537	875.38
459.644	595.38
459.75	542.38
459.857	963.38
459.964	659.38
460.07	591.38
460.177	649.38
460.283	669.38
460.39	730.38
460.496	671.38
460.603	746.38
460.71	661.38
460.816	605.38
460.923	636.38
461.029	657.38
461.136	612.38
461.242	697.38
461.349	661.38
461.455	612.38
461.562	912.38
461.668	738.38
461.774	634.38
461.881	759.38
461.987	730.38
462.094	713.38
462.2	735.38
462.307	790.38
462.413	670.38
462.519	674.38
462.626	865.38
462.732	776.38
462.838	774.38
462.945	884.38
463.051	810.38
463.157	730.38
463.264	807.38
463.37	866.38
463.476	732.38
463.583	762.38
463.689	783.38
463.795	711.38
463.901	783.38
464.008	906.38
464.114	705.38
464.22	648.38
464.326	735.38
464.433	716.38
464.539	713.38
464.645	686.38
464.751	887.38
464.857	724.38
464.963	640.38
465.07	726.38
465.176	634.38
465.282	642.38
465.388	758.38
465.494	493.38
465.6	538.38
465.706	501.38
465.812	460.38
465.918	556.38
466.024	476.38
466.131	589.38
466.237	489.38
466.343	485.38
466.449	500.38
466.555	415.38
466.661	427.38
466.767	511.38
466.873	452.38
466.979	570.38
467.085	471.38
467.191	536.38
467.296	393.38
467.402	406.38
467.508	508.38
467.614	576.38
467.72	445.38
467.826	462.38
467.932	398.38
468.038	395.38
468.144	470.38
468.25	406.38
468.355	366.38
468.461	491.38
468.567	423.38
468.673	423.38
468.779	424.38
468.885	426.38
468.99	340.38
469.096	439.38
469.202	529.38
469.308	459.38
469.413	476.38
469.519	448.38
469.625	440.38
469.731	448.38
469.836	431.38
469.942	647.38
470.048	439.38
470.153	427.38
470.259	501.38
470.365	552.38
470.47	501.38
470.576	569.38
470.682	418.38
470.787	387.38
470.893	428.38
470.999	482.38
471.104	459.38
471.21	412.38
471.315	354.38
471.421	361.38
471.527	575.38
471.632	525.38
471.738	463.38
471.843	364.38
471.949	469.38
472.054	401.38
472.16	339.38
472.265	432.38
472.371	360.38
472.476	407.38
472.582	498.38
472.687	395.38
472.793	331.38
472.898	325.38
473.003	388.38
473.109	292.38
473.214	292.38
473.32	385.38
473.425	411.38
473.53	403.38
473.636	342.38
473.741	350.38
473.847	349.38
473.952	376.38
474.057	402.38
474.163	445.38
474.268	330.38
474.373	419.38
474.478	305.38
474.584	303.38
474.689	465.38
474.794	396.38
474.9	584.38
475.005	400.38
475.11	518.38
475.215	327.38
475.321	360.38
475.426	555.38
475.531	496.38
475.636	350.38
475.741	361.38
475.846	513.38
475.952	540.38
476.057	479.38
476.162	429.38
476.267	474.38
476.372	691.38
476.477	394.38
476.582	472.38
476.687	371.38
476.793	392.38
476.898	350.38
477.003	385.38
477.108	414.38
477.213	352.38
477.318	343.38
477.423	474.38
477.528	488.38
477.633	507.38
477.738	462.38
477.843	335.38
477.948	399.38
478.053	388.38
478.158	370.38
478.263	455.38
478.368	419.38
478.473	519.38
478.578	457.38
478.682	390.38
478.787	486.38
478.892	427.38
478.997	494.38
479.102	441.38
479.207	387.38
479.312	534.38
479.417	508.38
479.521	448.38
479.626	537.38
479.731	464.38
479.836	464.38
479.941	592.38
480.045	526.38
480.15	566.38
480.255	496.38
480.36	400.38
480.465	544.38
480.569	626.38
480.674	470.38
480.779	434.38
480.883	447.38
480.988	430.38
481.093	480.38
481.197	497.38
481.302	451.38
481.407	507.38
481.511	1847.38
481.616	558.38
481.721	479.38
481.825	695.38
481.93	424.38
482.035	402.38
482.139	571.38
482.244	537.38
482.348	488.38
482.453	464.38
482.557	537.38
482.662	457.38
482.767	433.38
482.871	494.38
482.976	468.38
483.08	457.38
483.185	706.38
483.289	458.38
483.394	484.38
483.498	549.38
483.603	461.38
483.707	520.38
483.811	531.38
483.916	620.38
484.02	492.38
484.125	588.38
484.229	578.38
484.333	587.38
484.438	473.38
484.542	525.38
484.647	491.38
484.751	480.38
484.855	553.38
484.96	530.38
485.064	513.38
485.168	549.38
485.273	554.38
485.377	543.38
485.481	725.38
485.585	591.38
485.69	513.38
485.794	539.38
485.898	593.38
486.002	534.38
486.107	538.38
486.211	573.38
486.315	621.38
486.419	603.38
486.524	605.38
486.628	581.38
486.732	537.38
486.836	528.38
486.94	669.38
487.044	576.38
487.148	573.38
487.253	552.38
487.357	587.38
487.461	724.38
487.565	632.38
487.669	588.38
487.773	592.38
487.877	640.38
487.981	660.38
488.085	651.38
488.189	623.38
488.293	763.38
488.397	1032.38
488.501	668.38
488.605	615.38
488.709	536.38
488.813	561.38
488.917	582.38
489.021	578.38
489.125	852.38
489.229	589.38
489.333	749.38
489.437	633.38
489.541	619.38
489.645	644.38
489.749	624.38
489.853	637.38
489.956	652.38
490.06	643.38
490.164	612.38
490.268	618.38
490.372	641.38
490.476	587.38
490.579	627.38
490.683	1219.38
490.787	712.38
490.891	636.38
490.995	688.38
491.098	653.38
491.202	624.38
491.306	722.38
491.41	684.38
491.513	613.38
491.617	660.38
491.721	772.38
491.824	911.38
491.928	682.38
492.032	910.38
492.136	648.38
492.239	570.38
492.343	669.38
492.446	1028.38
492.55	708.38
492.654	589.38
492.757	573.38
492.861	647.38
492.965	668.38
493.068	727.38
493.172	630.38
493.275	584.38
493.379	666.38
493.482	716.38
493.586	748.38
493.689	909.38
493.793	643.38
493.896	715.38
494	725.38
494.103	692.38
494.207	984.38
494.31	1023.38
494.414	707.38
494.517	701.38
494.621	602.38
494.724	677.38
494.828	617.38
494.931	627.38
495.034	688.38
495.138	775.38
495.241	584.38
495.345	1362.38
495.448	773.38
495.551	629.38
495.655	692.38
495.758	633.38
495.861	626.38
495.965	617.38
496.068	674.38
496.171	688.38
496.274	600.38
496.378	633.38
496.481	670.38
496.584	634.38
496.687	716.38
496.791	704.38
496.894	655.38
496.997	685.38
497.1	632.38
497.204	669.38
497.307	610.38
497.41	823.38
497.513	921.38
497.616	672.38
497.719	708.38
497.823	737.38
497.926	694.38
498.029	714.38
498.132	767.38
498.235	731.38
498.338	798.38
498.441	879.38
498.544	748.38
498.647	844.38
498.75	948.38
498.853	1052.38
498.956	866.38
499.059	1104.38
499.163	924.38
499.266	1010.38
499.369	1084.38
499.471	1110.38
499.574	1192.38
499.677	1192.38
499.78	1193.38
499.883	1239.38
499.986	1324.38
500.089	1396.38
500.192	1403.38
500.295	1372.38
500.398	1412.38
500.501	1373.38
500.604	1298.38
500.707	1269.38
500.809	1213.38
500.912	1292.38
501.015	1281.38
501.118	1083.38
501.221	1065.38
501.324	1028.38
501.426	954.38
501.529	909.38
501.632	891.38
501.735	846.38
501.837	724.38
501.94	789.38
502.043	763.38
502.146	775.38
502.248	803.38
502.351	762.38
502.454	737.38
502.557	664.38
502.659	722.38
502.762	708.38
502.865	614.38
502.967	619.38
503.07	681.38
503.173	678.38
503.275	619.38
503.378	680.38
503.48	544.38
503.583	708.38
503.686	716.38
503.788	836.38
503.891	607.38
503.993	808.38
504.096	631.38
504.198	571.38
504.301	569.38
504.403	617.38
504.506	590.38
504.608	573.38
504.711	601.38
504.813	595.38
504.916	607.38
505.018	601.38
505.121	513.38
505.223	572.38
505.326	530.38
505.428	649.38
505.531	519.38
505.633	520.38
505.735	492.38
505.838	475.38
505.94	541.38
506.042	485.38
506.145	399.38
506.247	552.38
506.35	475.38
506.452	562.38
506.554	531.38
506.656	496.38
506.759	443.38
506.861	465.38
506.963	437.38
507.066	546.38
507.168	539.38
507.27	472.38
507.372	493.38
507.475	417.38
507.577	497.38
507.679	442.38
507.781	438.38
507.883	460.38
507.986	436.38
508.088	482.38
508.19	462.38
508.292	477.38
508.394	458.38
508.496	407.38
508.598	407.38
508.701	476.38
508.803	418.38
508.905	420.38
509.007	487.38
509.109	528.38
509.211	447.38
509.313	422.38
509.415	427.38
509.517	476.38
509.619	362.38
509.721	526.38
509.823	409.38
509.925	557.38
510.027	459.38
510.129	421.38
510.231	497.38
510.333	434.38
510.435	385.38
510.537	460.38
510.639	503.38
510.741	481.38
510.843	496.38
510.945	447.38
511.047	523.38
511.148	487.38
511.25	387.38
511.352	462.38
511.454	373.38
511.556	494.38
511.658	428.38
511.76	495.38
511.861	553.38
511.963	407.38
512.065	424.38
512.167	383.38
512.268	607.38
512.37	503.38
512.472	445.38
512.574	494.38
512.676	552.38
512.777	397.38
512.879	386.38
512.981	429.38
513.082	451.38
513.184	488.38
513.286	888.38
513.387	527.38
513.489	584.38
513.591	483.38
513.692	568.38
513.794	450.38
513.896	349.38
513.997	416.38
514.099	415.38
514.2	464.38
514.302	502.38
514.404	435.38
514.505	399.38
514.607	480.38
514.708	490.38
514.81	495.38
514.911	531.38
515.013	561.38
515.114	487.38
515.216	465.38
515.317	546.38
515.419	455.38
515.52	533.38
515.622	533.38
515.723	527.38
515.825	583.38
515.926	512.38
516.027	511.38
516.129	464.38
516.23	548.38
516.332	550.38
516.433	513.38
516.534	615.38
516.636	560.38
516.737	514.38
516.838	1542.38
516.94	738.38
517.041	574.38
517.142	673.38
517.244	781.38
517.345	629.38
517.446	659.38
517.547	712.38
517.649	690.38
517.75	661.38
517.851	606.38
517.952	898.38
518.054	642.38
518.155	697.38
518.256	652.38
518.357	740.38
518.458	551.38
518.56	535.38
518.661	606.38
518.762	570.38
518.863	680.38
518.964	644.38
519.065	514.38
519.166	559.38
519.268	517.38
519.369	804.38
519.47	527.38
519.571	634.38
519.672	458.38
519.773	524.38
519.874	601.38
519.975	536.38
520.076	545.38
520.177	604.38
520.278	570.38
520.379	550.38
520.48	476.38
520.581	548.38
520.682	478.38
520.783	517.38
520.884	669.38
520.985	595.38
521.086	513.38
521.187	592.38
521.288	558.38
521.389	506.38
521.489	515.38
521.59	531.38
521.691	564.38
521.792	485.38
521.893	663.38
521.994	664.38
522.095	599.38
522.195	676.38
522.296	709.38
522.397	613.38
522.498	569.38
522.599	479.38
522.699	521.38
522.8	547.38
522.901	681.38
523.002	582.38
523.102	747.38
523.203	624.38
523.304	701.38
523.405	495.38
523.505	580.38
523.606	593.38
523.707	560.38
523.807	591.38
523.908	547.38
524.009	679.38
524.109	571.38
524.21	521.38
524.31	591.38
524.411	690.38
524.512	690.38
524.612	585.38
524.713	738.38
524.813	604.38
524.914	754.38
525.014	5177.38
525.115	1007.38
525.216	581.38
525.316	599.38
525.417	573.38
525.517	636.38
525.618	555.38
525.718	498.38
525.819	581.38
525.919	622.38
526.019	536.38
526.12	625.38
526.22	524.38
526.321	546.38
526.421	504.38
526.522	514.38
526.622	523.38
526.722	530.38
526.823	624.38
526.923	587.38
527.023	634.38
527.124	574.38
527.224	655.38
527.324	499.38
527.425	637.38
527.525	509.38
527.625	510.38
527.726	609.38
527.826	618.38
527.926	603.38
528.026	583.38
528.127	535.38
528.227	500.38
528.327	640.38
528.427	585.38
528.528	590.38
528.628	609.38
528.728	635.38
528.828	632.38
528.928	648.38
529.029	572.38
529.129	611.38
529.229	610.38
529.329	593.38
529.429	674.38
529.529	655.38
529.629	609.38
529.729	617.38
529.829	752.38
529.93	597.38
530.03	675.38
530.13	604.38
530.23	602.38
530.33	721.38
530.43	580.38
530.53	636.38
530.63	605.38
530.73	563.38
530.83	459.38
530.93	520.38
531.03	547.38
531.13	601.38
531.23	536.38
531.33	605.38
531.429	625.38
531.529	720.38
531.629	629.38
531.729	488.38
531.829	488.38
531.929	532.38
532.029	604.38
532.129	528.38
532.229	603.38
532.328	602.38
532.428	514.38
532.528	482.38
532.628	544.38
532.728	544.38
532.827	481.38
532.927	628.38
533.027	546.38
533.127	638.38
533.227	579.38
533.326	569.38
533.426	484.38
533.526	627.38
533.625	692.38
533.725	808.38
533.825	656.38
533.924	508.38
534.024	487.38
534.124	463.38
534.223	587.38
534.323	908.38
534.423	590.38
534.522	578.38
534.622	491.38
534.722	462.38
534.821	532.38
534.921	528.38
535.02	438.38
535.12	562.38
535.219	645.38
535.319	570.38
535.419	597.38
535.518	522.38
535.618	567.38
535.717	571.38
535.817	445.38
535.916	424.38
536.016	539.38
536.115	459.38
536.215	547.38
536.314	452.38
536.413	402.38
536.513	498.38
536.612	435.38
536.712	376.38
536.811	491.38
536.91	419.38
537.01	381.38
537.109	522.38
537.209	504.38
537.308	405.38
537.407	460.38
537.507	498.38
537.606	418.38
537.705	507.38
537.805	471.38
537.904	392.38
538.003	514.38
538.102	593.38
538.202	478.38
538.301	495.38
538.4	511.38
538.499	499.38
538.599	503.38
538.698	701.38
538.797	520.38
538.896	558.38
538.995	536.38
539.095	463.38
539.194	640.38
539.293	452.38
539.392	447.38
539.491	468.38
539.59	475.38
539.689	586.38
539.789	572.38
539.888	365.38
539.987	387.38
540.086	483.38
540.185	412.38
540.284	488.38
540.383	534.38
540.482	393.38
540.581	446.38
540.68	446.38
540.779	500.38
540.878	460.38
540.977	533.38
541.076	507.38
541.175	483.38
541.274	655.38
541.373	576.38
541.472	479.38
541.571	419.38
541.67	1777.38
541.769	605.38
541.868	471.38
541.966	583.38
542.065	479.38
542.164	493.38
542.263	439.38
542.362	464.38
542.461	513.38
542.56	523.38
542.658	551.38
542.757	407.38
542.856	396.38
542.955	445.38
543.054	385.38
543.152	547.38
543.251	459.38
543.35	606.38
543.449	484.38
543.547	446.38
543.646	457.38
543.745	487.38
543.843	530.38
543.942	545.38
544.041	416.38
544.14	464.38
544.238	507.38
544.337	645.38
544.436	516.38
544.534	666.38
544.633	511.38
544.731	451.38
544.83	474.38
544.929	472.38
545.027	454.38
545.126	428.38
545.224	576.38
545.323	439.38
545.421	466.38
545.52	550.38
545.619	465.38
545.717	477.38
545.816	574.38
