Data from 21g_HRC06701__84__328.txt Node

Date: Thu Apr 18 02:09:03 CDT 2024
User: Estudiantes 2
Spectrometer: HR+C0670
Trigger mode: 4
Integration Time (sec): 1.000000E0
Scans to average: 1
Electric dark correction enabled: true
Nonlinearity correction enabled: false
Boxcar width: 0
XAxis mode: Wavelengths
Number of Pixels in Spectrum: 2048
>>>>>Begin Spectral Data<<<<<
407.81	-107.25
407.921	-107.25
408.032	-107.25
408.143	-143.25
408.254	-111.25
408.365	74.75
408.476	241.75
408.587	-30.25
408.699	34.75
408.81	-40.25
408.921	-57.25
409.032	-37.25
409.143	57.75
409.254	14.75
409.365	63.75
409.476	-18.25
409.587	3.75
409.698	53.75
409.809	128.75
409.92	-74.25
410.031	-41.25
410.142	85.75
410.253	6.75
410.364	51.75
410.475	1516.75
410.585	7033.75
410.696	7454.75
410.807	7245.75
410.918	7404.75
411.029	7468.75
411.14	7467.75
411.251	7612.75
411.362	7520.75
411.472	7652.75
411.583	7590.75
411.694	7842.75
411.805	7708.75
411.916	7912.75
412.026	7963.75
412.137	7694.75
412.248	7695.75
412.359	7733.75
412.47	7510.75
412.58	7381.75
412.691	7616.75
412.802	7450.75
412.912	7464.75
413.023	7559.75
413.134	7478.75
413.245	7539.75
413.355	7610.75
413.466	7412.75
413.577	7385.75
413.687	7570.75
413.798	7456.75
413.909	7637.75
414.019	7615.75
414.13	7596.75
414.24	7595.75
414.351	7785.75
414.462	8036.75
414.572	7741.75
414.683	7832.75
414.793	7898.75
414.904	8023.75
415.014	7649.75
415.125	7595.75
415.235	7743.75
415.346	7787.75
415.456	7711.75
415.567	7637.75
415.677	7510.75
415.788	7698.75
415.898	7631.75
416.009	7490.75
416.119	7660.75
416.23	7575.75
416.34	7551.75
416.45	7648.75
416.561	8525.75
416.671	7702.75
416.782	7721.75
416.892	7936.75
417.002	8054.75
417.113	7953.75
417.223	7980.75
417.333	7884.75
417.444	7889.75
417.554	8143.75
417.664	8306.75
417.775	8071.75
417.885	8297.75
417.995	8214.75
418.106	8743.75
418.216	8422.75
418.326	8565.75
418.436	8843.75
418.547	8853.75
418.657	8783.75
418.767	9035.75
418.877	8872.75
418.987	8978.75
419.098	8939.75
419.208	9115.75
419.318	9011.75
419.428	9051.75
419.538	8943.75
419.648	9148.75
419.759	9004.75
419.869	9080.75
419.979	8991.75
420.089	8912.75
420.199	9066.75
420.309	8906.75
420.419	9003.75
420.529	9175.75
420.639	9417.75
420.749	9092.75
420.859	9185.75
420.969	9257.75
421.079	9349.75
421.189	9112.75
421.299	9194.75
421.409	9297.75
421.519	9303.75
421.629	9577.75
421.739	9536.75
421.849	9594.75
421.959	9593.75
422.069	9762.75
422.179	9847.75
422.289	9898.75
422.399	10300.75
422.509	10407.75
422.619	12677.75
422.729	10614.75
422.838	10268.75
422.948	10553.75
423.058	10680.75
423.168	10710.75
423.278	10747.75
423.388	11071.75
423.498	11359.75
423.607	11141.75
423.717	11560.75
423.827	11691.75
423.937	11357.75
424.046	11411.75
424.156	11636.75
424.266	11442.75
424.376	11636.75
424.485	11607.75
424.595	11441.75
424.705	11600.75
424.815	11543.75
424.924	12008.75
425.034	11533.75
425.144	11488.75
425.253	11594.75
425.363	11780.75
425.473	11648.75
425.582	11416.75
425.692	11600.75
425.801	11556.75
425.911	11942.75
426.021	11740.75
426.13	12055.75
426.24	11998.75
426.349	12165.75
426.459	11878.75
426.568	11914.75
426.678	12115.75
426.787	12059.75
426.897	11899.75
427.006	12116.75
427.116	12288.75
427.225	12326.75
427.335	12559.75
427.444	12268.75
427.554	12244.75
427.663	12404.75
427.773	12514.75
427.882	12535.75
427.992	12589.75
428.101	12668.75
428.21	12557.75
428.32	12871.75
428.429	12732.75
428.539	13242.75
428.648	12906.75
428.757	12759.75
428.867	13104.75
428.976	13277.75
429.085	13182.75
429.195	13289.75
429.304	13165.75
429.413	13434.75
429.523	13449.75
429.632	13255.75
429.741	13302.75
429.85	13547.75
429.96	13672.75
430.069	13555.75
430.178	13770.75
430.287	13946.75
430.397	13728.75
430.506	13889.75
430.615	13717.75
430.724	14016.75
430.833	14001.75
430.943	14036.75
431.052	14124.75
431.161	14294.75
431.27	14562.75
431.379	14562.75
431.488	14562.75
431.597	14562.75
431.706	14562.75
431.816	14562.75
431.925	14562.75
432.034	14562.75
432.143	14562.75
432.252	14562.75
432.361	14562.75
432.47	14562.75
432.579	14562.75
432.688	14562.75
432.797	14562.75
432.906	14562.75
433.015	14562.75
433.124	14562.75
433.233	14562.75
433.342	14562.75
433.451	14562.75
433.56	14562.75
433.669	14562.75
433.778	14562.75
433.886	14562.75
433.995	14562.75
434.104	14562.75
434.213	14562.75
434.322	14562.75
434.431	14562.75
434.54	14562.75
434.649	14562.75
434.757	14562.75
434.866	14562.75
434.975	14562.75
435.084	14562.75
435.193	14562.75
435.301	14562.75
435.41	14562.75
435.519	14562.75
435.628	14562.75
435.737	14562.75
435.845	14562.75
435.954	14562.75
436.063	14562.75
436.171	14562.75
436.28	14554.75
436.389	14562.75
436.498	14524.75
436.606	14562.75
436.715	14562.75
436.823	14337.75
436.932	14118.75
437.041	13948.75
437.149	13993.75
437.258	13845.75
437.367	13483.75
437.475	13669.75
437.584	13890.75
437.692	13423.75
437.801	14562.75
437.91	13407.75
438.018	13418.75
438.127	13316.75
438.235	13436.75
438.344	13390.75
438.452	13401.75
438.561	13313.75
438.669	13447.75
438.778	13104.75
438.886	13245.75
438.995	13204.75
439.103	13255.75
439.212	13463.75
439.32	13461.75
439.428	13345.75
439.537	13315.75
439.645	13725.75
439.754	13814.75
439.862	13461.75
439.97	13727.75
440.079	13881.75
440.187	13869.75
440.295	13993.75
440.404	14047.75
440.512	14136.75
440.62	14019.75
440.729	14432.75
440.837	14496.75
440.945	14562.75
441.054	14562.75
441.162	14562.75
441.27	14562.75
441.378	14562.75
441.487	14562.75
441.595	14562.75
441.703	14562.75
441.811	14562.75
441.92	14562.75
442.028	14562.75
442.136	14562.75
442.244	14562.75
442.352	14562.75
442.461	14562.75
442.569	14562.75
442.677	14562.75
442.785	14562.75
442.893	14562.75
443.001	14562.75
443.109	14562.75
443.217	14562.75
443.325	14562.75
443.434	14562.75
443.542	14562.75
443.65	14562.75
443.758	14562.75
443.866	14562.75
443.974	14562.75
444.082	14562.75
444.19	14562.75
444.298	14562.75
444.406	14562.75
444.514	14562.75
444.622	14562.75
444.73	14562.75
444.838	14562.75
444.946	14562.75
445.054	14562.75
445.161	14562.75
445.269	14562.75
445.377	14562.75
445.485	14562.75
445.593	14562.75
445.701	14562.75
445.809	14562.75
445.917	14562.75
446.025	14562.75
446.132	14562.75
446.24	14562.75
446.348	14562.75
446.456	14562.75
446.564	14562.75
446.671	14562.75
446.779	14562.75
446.887	14453.75
446.995	14291.75
447.102	14530.75
447.21	14413.75
447.318	14169.75
447.426	14292.75
447.533	14562.75
447.641	14562.75
447.749	14354.75
447.856	14263.75
447.964	14190.75
448.072	14317.75
448.179	14266.75
448.287	14070.75
448.395	14359.75
448.502	14156.75
448.61	14342.75
448.718	14254.75
448.825	14381.75
448.933	14370.75
449.04	14294.75
449.148	14482.75
449.256	14537.75
449.363	14562.75
449.471	14562.75
449.578	14562.75
449.686	14562.75
449.793	14562.75
449.901	14562.75
450.008	14562.75
450.116	14562.75
450.223	14562.75
450.331	14562.75
450.438	14562.75
450.546	14562.75
450.653	14562.75
450.76	14562.75
450.868	14562.75
450.975	14562.75
451.083	14562.75
451.19	14562.75
451.297	14562.75
451.405	14562.75
451.512	14562.75
451.619	14562.75
451.727	14562.75
451.834	14562.75
451.941	14562.75
452.049	14562.75
452.156	14562.75
452.263	14562.75
452.371	14562.75
452.478	14562.75
452.585	14562.75
452.692	14562.75
452.8	14562.75
452.907	14562.75
453.014	14562.75
453.121	14562.75
453.229	14562.75
453.336	14562.75
453.443	14562.75
453.55	14562.75
453.657	14562.75
453.765	14562.75
453.872	14562.75
453.979	14562.75
454.086	14562.75
454.193	14562.75
454.3	14562.75
454.407	14562.75
454.514	14562.75
454.621	14562.75
454.729	14562.75
454.836	14562.75
454.943	14562.75
455.05	14562.75
455.157	14562.75
455.264	14562.75
455.371	14562.75
455.478	14562.75
455.585	14562.75
455.692	14562.75
455.799	14562.75
455.906	14562.75
456.013	14562.75
456.12	14562.75
456.227	14562.75
456.334	14562.75
456.44	14562.75
456.547	14562.75
456.654	14562.75
456.761	14562.75
456.868	14562.75
456.975	14562.75
457.082	14562.75
457.189	14562.75
457.296	14562.75
457.402	14562.75
457.509	14562.75
457.616	14562.75
457.723	14562.75
457.83	14562.75
457.936	14562.75
458.043	14562.75
458.15	14562.75
458.257	14562.75
458.363	14562.75
458.47	14562.75
458.577	14562.75
458.684	14562.75
458.79	14562.75
458.897	14562.75
459.004	14562.75
459.11	14562.75
459.217	14562.75
459.324	14562.75
459.43	14562.75
459.537	14562.75
459.644	14562.75
459.75	14562.75
459.857	14562.75
459.964	14562.75
460.07	14562.75
460.177	14562.75
460.283	14562.75
460.39	14562.75
460.496	14562.75
460.603	14562.75
460.71	14562.75
460.816	14562.75
460.923	14562.75
461.029	14562.75
461.136	14562.75
461.242	14562.75
461.349	14562.75
461.455	14562.75
461.562	14562.75
461.668	14562.75
461.774	14562.75
461.881	14562.75
461.987	14562.75
462.094	14562.75
462.2	14562.75
462.307	14562.75
462.413	14562.75
462.519	14562.75
462.626	14562.75
462.732	14562.75
462.838	14562.75
462.945	14562.75
463.051	14562.75
463.157	14562.75
463.264	14562.75
463.37	14562.75
463.476	14562.75
463.583	14562.75
463.689	14562.75
463.795	14562.75
463.901	14562.75
464.008	14562.75
464.114	14562.75
464.22	14562.75
464.326	14562.75
464.433	14562.75
464.539	14562.75
464.645	14562.75
464.751	14562.75
464.857	14562.75
464.963	14562.75
465.07	14562.75
465.176	14562.75
465.282	14562.75
465.388	14562.75
465.494	14562.75
465.6	14562.75
465.706	14562.75
465.812	14562.75
465.918	14562.75
466.024	14562.75
466.131	14562.75
466.237	14562.75
466.343	14562.75
466.449	14562.75
466.555	14562.75
466.661	14562.75
466.767	14562.75
466.873	14562.75
466.979	14562.75
467.085	14562.75
467.191	14562.75
467.296	14562.75
467.402	14562.75
467.508	14562.75
467.614	14562.75
467.72	14562.75
467.826	14562.75
467.932	14562.75
468.038	14562.75
468.144	14562.75
468.25	14562.75
468.355	14562.75
468.461	14562.75
468.567	14562.75
468.673	14562.75
468.779	14562.75
468.885	14562.75
468.99	14562.75
469.096	14562.75
469.202	14562.75
469.308	14562.75
469.413	14562.75
469.519	14562.75
469.625	14562.75
469.731	14562.75
469.836	14562.75
469.942	14562.75
470.048	14562.75
470.153	14562.75
470.259	14562.75
470.365	14562.75
470.47	14562.75
470.576	14562.75
470.682	14562.75
470.787	14562.75
470.893	14562.75
470.999	14562.75
471.104	14562.75
471.21	14562.75
471.315	14562.75
471.421	14562.75
471.527	14562.75
471.632	14562.75
471.738	14562.75
471.843	14562.75
471.949	14562.75
472.054	14562.75
472.16	14562.75
472.265	14562.75
472.371	14562.75
472.476	14562.75
472.582	14562.75
472.687	14562.75
472.793	14562.75
472.898	14562.75
473.003	14562.75
473.109	14562.75
473.214	14562.75
473.32	14562.75
473.425	14562.75
473.53	14562.75
473.636	14562.75
473.741	14562.75
473.847	14562.75
473.952	14562.75
474.057	14562.75
474.163	14562.75
474.268	14562.75
474.373	14562.75
474.478	14562.75
474.584	14562.75
474.689	14562.75
474.794	14562.75
474.9	14562.75
475.005	14562.75
475.11	14562.75
475.215	14562.75
475.321	14562.75
475.426	14562.75
475.531	14562.75
475.636	14562.75
475.741	14562.75
475.846	14562.75
475.952	14562.75
476.057	14562.75
476.162	14562.75
476.267	14562.75
476.372	14562.75
476.477	14562.75
476.582	14562.75
476.687	14562.75
476.793	14562.75
476.898	14562.75
477.003	14562.75
477.108	14562.75
477.213	14562.75
477.318	14562.75
477.423	14562.75
477.528	14562.75
477.633	14562.75
477.738	14562.75
477.843	14562.75
477.948	14562.75
478.053	14562.75
478.158	14562.75
478.263	14562.75
478.368	14562.75
478.473	14562.75
478.578	14562.75
478.682	14562.75
478.787	14562.75
478.892	14562.75
478.997	14562.75
479.102	14562.75
479.207	14562.75
479.312	14562.75
479.417	14562.75
479.521	14562.75
479.626	14562.75
479.731	14562.75
479.836	14562.75
479.941	14562.75
480.045	14562.75
480.15	14562.75
480.255	14562.75
480.36	14562.75
480.465	14562.75
480.569	14562.75
480.674	14562.75
480.779	14562.75
480.883	14562.75
480.988	14562.75
481.093	14562.75
481.197	14562.75
481.302	14562.75
481.407	14562.75
481.511	14562.75
481.616	14562.75
481.721	14562.75
481.825	14562.75
481.93	14562.75
482.035	14562.75
482.139	14562.75
482.244	14562.75
482.348	14562.75
482.453	14562.75
482.557	14562.75
482.662	14562.75
482.767	14562.75
482.871	14562.75
482.976	14562.75
483.08	14562.75
483.185	14562.75
483.289	14562.75
483.394	14562.75
483.498	14562.75
483.603	14562.75
483.707	14562.75
483.811	14562.75
483.916	14562.75
484.02	14562.75
484.125	14562.75
484.229	14562.75
484.333	14562.75
484.438	14562.75
484.542	14562.75
484.647	14562.75
484.751	14562.75
484.855	14562.75
484.96	14562.75
485.064	14562.75
485.168	14562.75
485.273	14562.75
485.377	14562.75
485.481	14562.75
485.585	14562.75
485.69	14562.75
485.794	14562.75
485.898	14562.75
486.002	14562.75
486.107	14562.75
486.211	14562.75
486.315	14562.75
486.419	14562.75
486.524	14562.75
486.628	14562.75
486.732	14562.75
486.836	14562.75
486.94	14562.75
487.044	14562.75
487.148	14562.75
487.253	14562.75
487.357	14562.75
487.461	14562.75
487.565	14562.75
487.669	14562.75
487.773	14562.75
487.877	14562.75
487.981	14562.75
488.085	14562.75
488.189	14562.75
488.293	14562.75
488.397	14562.75
488.501	14562.75
488.605	14562.75
488.709	14562.75
488.813	14562.75
488.917	14562.75
489.021	14562.75
489.125	14562.75
489.229	14562.75
489.333	14562.75
489.437	14562.75
489.541	14562.75
489.645	14562.75
489.749	14562.75
489.853	14562.75
489.956	14562.75
490.06	14562.75
490.164	14562.75
490.268	14562.75
490.372	14562.75
490.476	14562.75
490.579	14562.75
490.683	14562.75
490.787	14562.75
490.891	14562.75
490.995	14562.75
491.098	14562.75
491.202	14562.75
491.306	14562.75
491.41	14562.75
491.513	14562.75
491.617	14562.75
491.721	14562.75
491.824	14562.75
491.928	14562.75
492.032	14562.75
492.136	14562.75
492.239	14562.75
492.343	14562.75
492.446	14562.75
492.55	14562.75
492.654	14562.75
492.757	14562.75
492.861	14562.75
492.965	14562.75
493.068	14562.75
493.172	14562.75
493.275	14562.75
493.379	14562.75
493.482	14562.75
493.586	14562.75
493.689	14562.75
493.793	14562.75
493.896	14562.75
494	14562.75
494.103	14562.75
494.207	14562.75
494.31	14562.75
494.414	14562.75
494.517	14562.75
494.621	14562.75
494.724	14562.75
494.828	14562.75
494.931	14562.75
495.034	14562.75
495.138	14562.75
495.241	14562.75
495.345	14562.75
495.448	14562.75
495.551	14562.75
495.655	14562.75
495.758	14562.75
495.861	14562.75
495.965	14562.75
496.068	14562.75
496.171	14562.75
496.274	14562.75
496.378	14562.75
496.481	14562.75
496.584	14562.75
496.687	14562.75
496.791	14562.75
496.894	14562.75
496.997	14562.75
497.1	14562.75
497.204	14562.75
497.307	14562.75
497.41	14562.75
497.513	14562.75
497.616	14562.75
497.719	14562.75
497.823	14562.75
497.926	14562.75
498.029	14562.75
498.132	14562.75
498.235	14562.75
498.338	14562.75
498.441	14562.75
498.544	14562.75
498.647	14562.75
498.75	14562.75
498.853	14562.75
498.956	14562.75
499.059	14562.75
499.163	14562.75
499.266	14562.75
499.369	14562.75
499.471	14562.75
499.574	14562.75
499.677	14562.75
499.78	14562.75
499.883	14562.75
499.986	14562.75
500.089	14562.75
500.192	14562.75
500.295	14562.75
500.398	14562.75
500.501	14562.75
500.604	14562.75
500.707	14562.75
500.809	14562.75
500.912	14562.75
501.015	14562.75
501.118	14562.75
501.221	14562.75
501.324	14562.75
501.426	14562.75
501.529	14562.75
501.632	14562.75
501.735	14562.75
501.837	14562.75
501.94	14562.75
502.043	14562.75
502.146	14562.75
502.248	14562.75
502.351	14562.75
502.454	14562.75
502.557	14562.75
502.659	14562.75
502.762	14562.75
502.865	14562.75
502.967	14562.75
503.07	14562.75
503.173	14562.75
503.275	14562.75
503.378	14562.75
503.48	14562.75
503.583	14562.75
503.686	14562.75
503.788	14562.75
503.891	14562.75
503.993	14562.75
504.096	14562.75
504.198	14562.75
504.301	14562.75
504.403	14562.75
504.506	14562.75
504.608	14562.75
504.711	14562.75
504.813	14562.75
504.916	14562.75
505.018	14562.75
505.121	14562.75
505.223	14562.75
505.326	14562.75
505.428	14562.75
505.531	14562.75
505.633	14562.75
505.735	14562.75
505.838	14562.75
505.94	14562.75
506.042	14562.75
506.145	14562.75
506.247	14562.75
506.35	14562.75
506.452	14562.75
506.554	14562.75
506.656	14562.75
506.759	14562.75
506.861	14562.75
506.963	14562.75
507.066	14562.75
507.168	14562.75
507.27	14562.75
507.372	14562.75
507.475	14562.75
507.577	14562.75
507.679	14562.75
507.781	14562.75
507.883	14562.75
507.986	14562.75
508.088	14562.75
508.19	14562.75
508.292	14562.75
508.394	14562.75
508.496	14562.75
508.598	14562.75
508.701	14562.75
508.803	14562.75
508.905	14562.75
509.007	14562.75
509.109	14562.75
509.211	14562.75
509.313	14562.75
509.415	14562.75
509.517	14562.75
509.619	14562.75
509.721	14562.75
509.823	14562.75
509.925	14562.75
510.027	14562.75
510.129	14562.75
510.231	14562.75
510.333	14562.75
510.435	14562.75
510.537	14562.75
510.639	14562.75
510.741	14562.75
510.843	14562.75
510.945	14562.75
511.047	14562.75
511.148	14562.75
511.25	14562.75
511.352	14562.75
511.454	14562.75
511.556	14562.75
511.658	14562.75
511.76	14562.75
511.861	14562.75
511.963	14562.75
512.065	14562.75
512.167	14562.75
512.268	14562.75
512.37	14562.75
512.472	14562.75
512.574	14562.75
512.676	14562.75
512.777	14562.75
512.879	14562.75
512.981	14562.75
513.082	14562.75
513.184	14562.75
513.286	14562.75
513.387	14562.75
513.489	14562.75
513.591	14562.75
513.692	14562.75
513.794	14562.75
513.896	14562.75
513.997	14562.75
514.099	14562.75
514.2	14562.75
514.302	14562.75
514.404	14562.75
514.505	14562.75
514.607	14562.75
514.708	14562.75
514.81	14562.75
514.911	14562.75
515.013	14562.75
515.114	14562.75
515.216	14562.75
515.317	14562.75
515.419	14562.75
515.52	14562.75
515.622	14562.75
515.723	14562.75
515.825	14562.75
515.926	14562.75
516.027	14562.75
516.129	14562.75
516.23	14562.75
516.332	14562.75
516.433	14562.75
516.534	14562.75
516.636	14562.75
516.737	14562.75
516.838	14562.75
516.94	14562.75
517.041	14562.75
517.142	14562.75
517.244	14562.75
517.345	14562.75
517.446	14562.75
517.547	14562.75
517.649	14562.75
517.75	14562.75
517.851	14562.75
517.952	14562.75
518.054	14562.75
518.155	14562.75
518.256	14562.75
518.357	14562.75
518.458	14562.75
518.56	14562.75
518.661	14562.75
518.762	14562.75
518.863	14562.75
518.964	14562.75
519.065	14562.75
519.166	14562.75
519.268	14562.75
519.369	14562.75
519.47	14562.75
519.571	14562.75
519.672	14562.75
519.773	14562.75
519.874	14562.75
519.975	14562.75
520.076	14562.75
520.177	14562.75
520.278	14562.75
520.379	14562.75
520.48	14562.75
520.581	14562.75
520.682	14562.75
520.783	14562.75
520.884	14562.75
520.985	14562.75
521.086	14562.75
521.187	14562.75
521.288	14562.75
521.389	14562.75
521.489	14562.75
521.59	14562.75
521.691	14562.75
521.792	14562.75
521.893	14562.75
521.994	14562.75
522.095	14562.75
522.195	14562.75
522.296	14562.75
522.397	14562.75
522.498	14562.75
522.599	14562.75
522.699	14562.75
522.8	14562.75
522.901	14562.75
523.002	14562.75
523.102	14562.75
523.203	14562.75
523.304	14562.75
523.405	14562.75
523.505	14562.75
523.606	14562.75
523.707	14562.75
523.807	14562.75
523.908	14562.75
524.009	14562.75
524.109	14562.75
524.21	14562.75
524.31	14562.75
524.411	14562.75
524.512	14562.75
524.612	14562.75
524.713	14562.75
524.813	14562.75
524.914	14562.75
525.014	14562.75
525.115	14562.75
525.216	14562.75
525.316	14562.75
525.417	14562.75
525.517	14562.75
525.618	14562.75
525.718	14562.75
525.819	14562.75
525.919	14562.75
526.019	14562.75
526.12	14562.75
526.22	14562.75
526.321	14562.75
526.421	14562.75
526.522	14562.75
526.622	14562.75
526.722	14562.75
526.823	14562.75
526.923	14562.75
527.023	14562.75
527.124	14562.75
527.224	14562.75
527.324	14562.75
527.425	14562.75
527.525	14562.75
527.625	14562.75
527.726	14562.75
527.826	14562.75
527.926	14562.75
528.026	14562.75
528.127	14562.75
528.227	14562.75
528.327	14562.75
528.427	14562.75
528.528	14562.75
528.628	14562.75
528.728	14562.75
528.828	14562.75
528.928	14562.75
529.029	14562.75
529.129	14562.75
529.229	14562.75
529.329	14562.75
529.429	14562.75
529.529	14562.75
529.629	14562.75
529.729	14562.75
529.829	14562.75
529.93	14562.75
530.03	14562.75
530.13	14562.75
530.23	14562.75
530.33	14562.75
530.43	14562.75
530.53	14562.75
530.63	14562.75
530.73	14562.75
530.83	14562.75
530.93	14562.75
531.03	14562.75
531.13	14562.75
531.23	14562.75
531.33	14562.75
531.429	14562.75
