Data from 21g_HRC06701__91__335.txt Node

Date: Thu Apr 18 02:09:10 CDT 2024
User: Estudiantes 2
Spectrometer: HR+C0670
Trigger mode: 4
Integration Time (sec): 1.000000E0
Scans to average: 1
Electric dark correction enabled: true
Nonlinearity correction enabled: false
Boxcar width: 0
XAxis mode: Wavelengths
Number of Pixels in Spectrum: 2048
>>>>>Begin Spectral Data<<<<<
407.81	-132
407.921	-132
408.032	-132
408.143	-131
408.254	-143
408.365	95
408.476	212
408.587	-40
408.699	10
408.81	-2
408.921	-48
409.032	-16
409.143	54
409.254	19
409.365	68
409.476	10
409.587	-18
409.698	62
409.809	134
409.92	-42
410.031	-56
410.142	67
410.253	37
410.364	-25
410.475	1060
410.585	4900
410.696	5399
410.807	5189
410.918	5235
411.029	5212
411.14	5314
411.251	5353
411.362	5376
411.472	5338
411.583	5456
411.694	5525
411.805	5456
411.916	5586
412.026	5530
412.137	5440
412.248	5484
412.359	5492
412.47	5311
412.58	5229
412.691	5449
412.802	5233
412.912	5219
413.023	5315
413.134	5249
413.245	5294
413.355	5299
413.466	5287
413.577	5173
413.687	5332
413.798	5153
413.909	5352
414.019	5362
414.13	5424
414.24	5376
414.351	5435
414.462	5715
414.572	5488
414.683	5473
414.793	5476
414.904	5757
415.014	5475
415.125	5324
415.235	5457
415.346	5560
415.456	5565
415.567	5416
415.677	5275
415.788	5396
415.898	5322
416.009	5258
416.119	5365
416.23	5307
416.34	5251
416.45	5264
416.561	6273
416.671	5440
416.782	5313
416.892	5447
417.002	5615
417.113	5682
417.223	5501
417.333	5593
417.444	5478
417.554	5622
417.664	5794
417.775	5551
417.885	5717
417.995	5743
418.106	6199
418.216	5912
418.326	5980
418.436	6211
418.547	6202
418.657	6185
418.767	6489
418.877	6314
418.987	6307
419.098	6254
419.208	6421
419.318	6344
419.428	6406
419.538	6237
419.648	6259
419.759	6257
419.869	6326
419.979	6183
420.089	6264
420.199	6252
420.309	6295
420.419	6298
420.529	6357
420.639	6724
420.749	6310
420.859	6497
420.969	6593
421.079	6700
421.189	6467
421.299	6355
421.409	6341
421.519	6550
421.629	6740
421.739	6580
421.849	6695
421.959	6775
422.069	6826
422.179	6804
422.289	6861
422.399	7117
422.509	7016
422.619	9613
422.729	7381
422.838	7114
422.948	7444
423.058	7370
423.168	7315
423.278	7432
423.388	7556
423.498	7814
423.607	7693
423.717	7896
423.827	8029
423.937	7949
424.046	8035
424.156	8053
424.266	7961
424.376	8261
424.485	8084
424.595	7996
424.705	7993
424.815	7980
424.924	8683
425.034	8083
425.144	7904
425.253	8060
425.363	8256
425.473	8254
425.582	8064
425.692	8149
425.801	8093
425.911	8513
426.021	8366
426.13	8340
426.24	8427
426.349	8435
426.459	8500
426.568	8456
426.678	8716
426.787	8577
426.897	8457
427.006	8554
427.116	8661
427.225	8508
427.335	8826
427.444	8648
427.554	8715
427.663	8882
427.773	8808
427.882	9027
427.992	8887
428.101	9054
428.21	8853
428.32	9111
428.429	9068
428.539	9371
428.648	9084
428.757	9267
428.867	9261
428.976	9638
429.085	9443
429.195	9509
429.304	9401
429.413	9587
429.523	9547
429.632	9487
429.741	9654
429.85	9626
429.96	9788
430.069	9684
430.178	9787
430.287	9962
430.397	9860
430.506	9809
430.615	9874
430.724	9983
430.833	9957
430.943	10006
431.052	10043
431.161	10280
431.27	10404
431.379	10518
431.488	10979
431.597	10764
431.706	10890
431.816	10970
431.925	10859
432.034	10709
432.143	10803
432.252	10680
432.361	10904
432.47	10807
432.579	10776
432.688	10701
432.797	10711
432.906	10709
433.015	10811
433.124	11134
433.233	11001
433.342	10834
433.451	10972
433.56	10878
433.669	11089
433.778	10888
433.886	11176
433.995	11178
434.104	11651
434.213	11534
434.322	11638
434.431	12013
434.54	12411
434.649	12750
434.757	12712
434.866	12512
434.975	12273
435.084	12012
435.193	11841
435.301	11579
435.41	11508
435.519	11578
435.628	10713
435.737	10791
435.845	10640
435.954	10261
436.063	10463
436.171	10374
436.28	10332
436.389	10601
436.498	10261
436.606	10464
436.715	10557
436.823	10126
436.932	10001
437.041	9902
437.149	9902
437.258	9850
437.367	9600
437.475	9701
437.584	9881
437.692	9480
437.801	11143
437.91	9688
438.018	9513
438.127	9390
438.235	9517
438.344	9557
438.452	9402
438.561	9307
438.669	9379
438.778	9242
438.886	9433
438.995	9347
439.103	9426
439.212	9342
439.32	9524
439.428	9444
439.537	9376
439.645	9710
439.754	9729
439.862	9412
439.97	9710
440.079	9766
440.187	9528
440.295	9790
440.404	9731
440.512	9851
440.62	9908
440.729	10087
440.837	10213
440.945	11081
441.054	10571
441.162	10704
441.27	10983
441.378	11191
441.487	11139
441.595	11521
441.703	11228
441.811	10838
441.92	10762
442.028	10384
442.136	10555
442.244	10501
442.352	10528
442.461	10333
442.569	10372
442.677	10549
442.785	10496
442.893	10428
443.001	10389
443.109	10313
443.217	10510
443.325	10411
443.434	11215
443.542	10936
443.65	10753
443.758	11087
443.866	11074
443.974	11561
444.082	11394
444.19	11916
444.298	12088
444.406	12555
444.514	12928
444.622	13005
444.73	12755
444.838	12503
444.946	12321
445.054	11813
445.161	11449
445.269	11161
445.377	11098
445.485	10913
445.593	10639
445.701	10808
445.809	10691
445.917	10516
446.025	10484
446.132	10668
446.24	10477
446.348	10569
446.456	10351
446.564	10364
446.671	10480
446.779	10290
446.887	10281
446.995	10102
447.102	10257
447.21	10159
447.318	9945
447.426	9994
447.533	10378
447.641	11365
447.749	10243
447.856	10124
447.964	10082
448.072	10135
448.179	10158
448.287	9997
448.395	10084
448.502	10007
448.61	10185
448.718	10145
448.825	10190
448.933	10159
449.04	10092
449.148	10339
449.256	10369
449.363	10341
449.471	10480
449.578	10540
449.686	10457
449.793	10761
449.901	10649
450.008	10663
450.116	10930
450.223	10992
450.331	11158
450.438	11173
450.546	11324
450.653	11405
450.76	11586
450.868	11614
450.975	11949
451.083	11644
451.19	11804
451.297	11760
451.405	11905
451.512	11753
451.619	11981
451.727	11962
451.834	11777
451.941	11948
452.049	11876
452.156	11988
452.263	12194
452.371	12220
452.478	12065
452.585	12358
452.692	12109
452.8	12373
452.907	12491
453.014	12317
453.121	12597
453.229	12528
453.336	12630
453.443	12623
453.55	12592
453.657	12539
453.765	12911
453.872	12596
453.979	12798
454.086	12917
454.193	12888
454.3	12647
454.407	12810
454.514	13189
454.621	12931
454.729	12942
454.836	13106
454.943	13221
455.05	13203
455.157	13330
455.264	13047
455.371	13345
455.478	13409
455.585	14558
455.692	13621
455.799	13682
455.906	13501
456.013	13570
456.12	13552
456.227	13744
456.334	13932
456.44	14010
456.547	14041
456.654	13881
456.761	13999
456.868	14194
456.975	14226
457.082	14165
457.189	14023
457.296	14261
457.402	14294
457.509	14387
457.616	14558
457.723	14558
457.83	14558
457.936	14558
458.043	14558
458.15	14558
458.257	14558
458.363	14558
458.47	14558
458.577	14558
458.684	14558
458.79	14558
458.897	14558
459.004	14558
459.11	14558
459.217	14558
459.324	14558
459.43	14558
459.537	14558
459.644	14558
459.75	14558
459.857	14558
459.964	14558
460.07	14558
460.177	14558
460.283	14558
460.39	14558
460.496	14558
460.603	14558
460.71	14558
460.816	14558
460.923	14558
461.029	14558
461.136	14558
461.242	14558
461.349	14558
461.455	14558
461.562	14558
461.668	14558
461.774	14558
461.881	14558
461.987	14558
462.094	14558
462.2	14558
462.307	14558
462.413	14558
462.519	14558
462.626	14558
462.732	14558
462.838	14558
462.945	14558
463.051	14558
463.157	14558
463.264	14558
463.37	14558
463.476	14558
463.583	14558
463.689	14558
463.795	14558
463.901	14558
464.008	14558
464.114	14558
464.22	14558
464.326	14558
464.433	14558
464.539	14558
464.645	14558
464.751	14558
464.857	14558
464.963	14558
465.07	14558
465.176	14558
465.282	14558
465.388	14558
465.494	14558
465.6	14558
465.706	14558
465.812	14558
465.918	14558
466.024	14558
466.131	14558
466.237	14558
466.343	14558
466.449	14558
466.555	14558
466.661	14389
466.767	14347
466.873	14217
466.979	14295
467.085	14038
467.191	14200
467.296	14158
467.402	13934
467.508	13944
467.614	14057
467.72	13334
467.826	13187
467.932	13239
468.038	13100
468.144	12951
468.25	12837
468.355	12928
468.461	12741
468.567	12632
468.673	12692
468.779	12538
468.885	12569
468.99	12667
469.096	12690
469.202	12797
469.308	12865
469.413	13010
469.519	13096
469.625	13200
469.731	13242
469.836	13237
469.942	13332
470.048	13519
470.153	13478
470.259	13488
470.365	13493
470.47	13363
470.576	13184
470.682	13234
470.787	12934
470.893	12563
470.999	12665
471.104	12452
471.21	12110
471.315	12053
471.421	11936
471.527	12005
471.632	11852
471.738	11641
471.843	11334
471.949	11279
472.054	11410
472.16	11042
472.265	11135
472.371	11088
472.476	11041
472.582	10940
472.687	10807
472.793	10679
472.898	10717
473.003	10622
473.109	10646
473.214	10450
473.32	10568
473.425	10444
473.53	10398
473.636	10365
473.741	10491
473.847	10281
473.952	10432
474.057	10391
474.163	10491
474.268	10326
474.373	10429
474.478	10395
474.584	10122
474.689	10303
474.794	10348
474.9	10698
475.005	10137
475.11	10666
475.215	10429
475.321	10359
475.426	10625
475.531	10600
475.636	10337
475.741	10439
475.846	10680
475.952	10748
476.057	10644
476.162	10717
476.267	10659
476.372	11047
476.477	10656
476.582	10889
476.687	10774
476.793	10928
476.898	11112
477.003	11103
477.108	11127
477.213	11260
477.318	11381
477.423	11511
477.528	11758
477.633	11893
477.738	12018
477.843	11921
477.948	12189
478.053	12317
478.158	12337
478.263	12496
478.368	12569
478.473	12791
478.578	12932
478.682	12799
478.787	13059
478.892	12863
478.997	12951
479.102	12870
479.207	12817
479.312	13029
479.417	12956
479.521	12946
479.626	13326
479.731	13166
479.836	13331
479.941	13862
480.045	13899
480.15	14223
480.255	14274
480.36	14345
480.465	14234
480.569	14363
480.674	13732
480.779	13481
480.883	13513
480.988	13520
481.093	13300
481.197	13097
481.302	13355
481.407	13144
481.511	14558
481.616	13055
481.721	13112
481.825	13121
481.93	13044
482.035	13099
482.139	13151
482.244	13101
482.348	13315
482.453	13240
482.557	13267
482.662	13437
482.767	13389
482.871	13379
482.976	13450
483.08	13510
483.185	13897
483.289	13815
483.394	13957
483.498	13972
483.603	14066
483.707	14261
483.811	14243
483.916	14451
484.02	14383
484.125	14528
484.229	14558
484.333	14558
484.438	14558
484.542	14558
484.647	14558
484.751	14558
484.855	14558
484.96	14558
485.064	14558
485.168	14558
485.273	14558
485.377	14558
485.481	14558
485.585	14558
485.69	14558
485.794	14558
485.898	14558
486.002	14558
486.107	14558
486.211	14558
486.315	14558
486.419	14558
486.524	14558
486.628	14558
486.732	14558
486.836	14558
486.94	14558
487.044	14558
487.148	14558
487.253	14558
487.357	14558
487.461	14558
487.565	14558
487.669	14558
487.773	14558
487.877	14558
487.981	14558
488.085	14558
488.189	14558
488.293	14558
488.397	14558
488.501	14558
488.605	14558
488.709	14558
488.813	14558
488.917	14558
489.021	14558
489.125	14558
489.229	14558
489.333	14558
489.437	14558
489.541	14558
489.645	14558
489.749	14558
489.853	14558
489.956	14558
490.06	14558
490.164	14558
490.268	14558
490.372	14558
490.476	14558
490.579	14558
490.683	14558
490.787	14558
490.891	14558
490.995	14558
491.098	14558
491.202	14558
491.306	14558
491.41	14558
491.513	14558
491.617	14558
491.721	14558
491.824	14558
491.928	14558
492.032	14558
492.136	14558
492.239	14558
492.343	14558
492.446	14558
492.55	14558
492.654	14558
492.757	14558
492.861	14558
492.965	14558
493.068	14558
493.172	14558
493.275	14558
493.379	14558
493.482	14558
493.586	14558
493.689	14558
493.793	14558
493.896	14558
494	14558
494.103	14558
494.207	14558
494.31	14558
494.414	14558
494.517	14558
494.621	14558
494.724	14558
494.828	14558
494.931	14558
495.034	14558
495.138	14558
495.241	14558
495.345	14558
495.448	14558
495.551	14558
495.655	14558
495.758	14558
495.861	14558
495.965	14558
496.068	14558
496.171	14558
496.274	14558
496.378	14558
496.481	14558
496.584	14558
496.687	14558
496.791	14558
496.894	14558
496.997	14558
497.1	14558
497.204	14558
497.307	14558
497.41	14558
497.513	14558
497.616	14558
497.719	14558
497.823	14558
497.926	14558
498.029	14558
498.132	14558
498.235	14558
498.338	14558
498.441	14558
498.544	14558
498.647	14558
498.75	14558
498.853	14558
498.956	14558
499.059	14558
499.163	14558
499.266	14558
499.369	14558
499.471	14558
499.574	14558
499.677	14558
499.78	14558
499.883	14558
499.986	14558
500.089	14558
500.192	14558
500.295	14558
500.398	14558
500.501	14558
500.604	14558
500.707	14558
500.809	14558
500.912	14558
501.015	14558
501.118	14558
501.221	14558
501.324	14558
501.426	14558
501.529	14558
501.632	14558
501.735	14558
501.837	14558
501.94	14558
502.043	14558
502.146	14558
502.248	14558
502.351	14558
502.454	14558
502.557	14558
502.659	14558
502.762	14558
502.865	14558
502.967	14558
503.07	14558
503.173	14558
503.275	14558
503.378	14558
503.48	14558
503.583	14558
503.686	14558
503.788	14558
503.891	14558
503.993	14558
504.096	14558
504.198	14558
504.301	14558
504.403	14558
504.506	14558
504.608	14558
504.711	14558
504.813	14558
504.916	14303
505.018	13804
505.121	13623
505.223	13469
505.326	13189
505.428	13018
505.531	12870
505.633	12650
505.735	12550
505.838	12524
505.94	12313
506.042	12292
506.145	12163
506.247	12246
506.35	12054
506.452	12011
506.554	11996
506.656	11730
506.759	11760
506.861	11712
506.963	11544
507.066	11604
507.168	11811
507.27	11637
507.372	11441
507.475	11334
507.577	11394
507.679	11274
507.781	11208
507.883	11198
507.986	11054
508.088	10997
508.19	11105
508.292	11001
508.394	10830
508.496	10898
508.598	11016
508.701	10954
508.803	10724
508.905	10743
509.007	10837
509.109	10819
509.211	10806
509.313	10614
509.415	10565
509.517	10739
509.619	10485
509.721	10726
509.823	10595
509.925	10880
510.027	10438
510.129	10540
510.231	10715
510.333	10417
510.435	10467
510.537	10545
510.639	10544
510.741	10463
510.843	10499
510.945	10342
511.047	10549
511.148	10679
511.25	10416
511.352	10478
511.454	10443
511.556	10582
511.658	10470
511.76	10500
511.861	10813
511.963	10342
512.065	10475
512.167	10476
512.268	10656
512.37	10653
512.472	10646
512.574	10695
512.676	10790
512.777	10639
512.879	10558
512.981	10522
513.082	10661
513.184	10543
513.286	11180
513.387	10897
513.489	10944
513.591	10859
513.692	11009
513.794	11012
513.896	10808
513.997	10904
514.099	10941
514.2	11061
514.302	11108
514.404	11055
514.505	11129
514.607	11266
514.708	11251
514.81	11436
514.911	11496
515.013	11594
515.114	11589
515.216	11496
515.317	11647
515.419	11854
515.52	12008
515.622	11954
515.723	12082
515.825	12524
515.926	12532
516.027	12517
516.129	12799
516.23	12936
516.332	13125
516.433	13389
516.534	13636
516.636	13861
516.737	14148
516.838	14558
516.94	14558
517.041	14558
517.142	14558
517.244	14558
517.345	14558
517.446	14558
517.547	14558
517.649	14558
517.75	14558
517.851	14558
517.952	14558
518.054	14558
518.155	14558
518.256	14558
518.357	14558
518.458	14558
518.56	14557
518.661	14408
518.762	14159
518.863	14299
518.964	13932
519.065	13620
519.166	13536
519.268	13114
519.369	13544
519.47	13192
519.571	13050
519.672	12893
519.773	12809
519.874	12852
519.975	12764
520.076	12828
520.177	12744
520.278	12619
520.379	12667
520.48	12396
520.581	12410
520.682	12375
520.783	12435
520.884	12332
520.985	12403
521.086	12302
521.187	12272
521.288	12144
521.389	12305
521.489	11955
521.59	12237
521.691	12309
521.792	12016
521.893	12149
521.994	12182
522.095	12080
522.195	12209
522.296	12216
522.397	12306
522.498	11924
522.599	12016
522.699	12169
522.8	12011
522.901	12167
523.002	12224
523.102	12302
523.203	12023
523.304	12325
523.405	12134
523.505	12163
523.606	12132
523.707	12208
523.807	12304
523.908	12337
524.009	12377
524.109	12328
524.21	12138
524.31	12125
524.411	12203
524.512	12372
524.612	12402
524.713	12396
524.813	12434
524.914	12643
525.014	14558
525.115	12490
525.216	12123
525.316	12354
525.417	12168
525.517	12313
525.618	12251
525.718	12232
525.819	12225
525.919	12369
526.019	12281
526.12	12291
526.22	12152
526.321	12148
526.421	12160
526.522	12174
526.622	12123
526.722	12182
526.823	12111
526.923	12089
527.023	12134
527.124	11962
527.224	12108
527.324	12072
527.425	12176
527.525	12190
527.625	12176
527.726	12148
527.826	12109
527.926	12266
528.026	12277
528.127	12141
528.227	12239
528.327	12383
528.427	12264
528.528	12374
528.628	12304
528.728	12377
528.828	12413
528.928	12180
529.029	12061
529.129	12242
529.229	12257
529.329	12157
529.429	12208
529.529	12370
529.629	12279
529.729	12123
529.829	12371
529.93	12033
530.03	12130
530.13	11861
530.23	11989
530.33	12116
530.43	12002
530.53	12009
530.63	11992
530.73	11708
530.83	11725
530.93	11704
531.03	11747
531.13	11908
531.23	11693
531.33	11814
531.429	11933
531.529	12092
531.629	11857
531.729	11660
531.829	11860
531.929	11769
532.029	11757
532.129	11772
532.229	11825
532.328	11729
532.428	11734
532.528	11546
532.628	11542
532.728	11634
532.827	11409
532.927	11668
533.027	11474
533.127	11635
533.227	11519
533.326	11463
533.426	11475
533.526	11472
533.625	11479
533.725	11639
533.825	11469
533.924	11160
534.024	10884
534.124	11086
534.223	10989
534.323	11483
534.423	11081
534.522	11107
534.622	10875
534.722	10958
534.821	10887
534.921	10794
535.02	10789
535.12	10889
535.219	10803
535.319	10807
535.419	10828
535.518	10557
535.618	10412
535.717	10636
535.817	10272
535.916	10170
536.016	10349
536.115	10010
536.215	10022
536.314	9988
536.413	9945
536.513	10043
536.612	9863
536.712	9839
536.811	9766
536.91	9657
537.01	9817
537.109	9687
537.209	9732
537.308	9710
537.407	9631
537.507	9727
537.606	9601
537.705	9675
537.805	9723
537.904	9486
538.003	9573
538.102	9535
538.202	9502
538.301	9633
538.4	9545
538.499	9532
538.599	9595
538.698	9736
538.797	9400
538.896	9671
538.995	9481
539.095	9353
539.194	9613
539.293	9440
539.392	9288
539.491	9178
539.59	9127
539.689	9225
539.789	9048
539.888	8946
539.987	8965
540.086	8924
540.185	9031
540.284	9092
540.383	9003
540.482	8924
540.581	9089
540.68	8986
540.779	9133
540.878	9114
540.977	9101
541.076	9005
541.175	9095
541.274	9303
541.373	8964
541.472	9016
541.571	8947
541.67	10238
541.769	9064
541.868	9108
541.966	8982
542.065	8817
542.164	8885
542.263	8729
542.362	8611
542.461	8829
542.56	8613
542.658	8733
542.757	8714
542.856	8516
542.955	8467
543.054	8442
543.152	8772
543.251	8604
543.35	8677
543.449	8624
543.547	8459
543.646	8479
543.745	8604
543.843	8647
543.942	8635
544.041	8643
544.14	8779
544.238	8561
544.337	8874
544.436	8872
544.534	8979
544.633	8956
544.731	8834
544.83	8883
544.929	8853
545.027	8894
545.126	8823
545.224	8980
545.323	8933
545.421	8919
545.52	8937
545.619	8915
545.717	8840
545.816	8858
545.914	8961
546.013	9186
546.111	9049
546.209	8727
546.308	8773
546.406	8748
546.505	8961
546.603	8852
546.702	8677
546.8	8728
546.899	8806
546.997	8766
547.095	8622
547.194	8722
547.292	8711
547.39	8881
547.489	8824
547.587	9105
547.685	8784
547.784	9238
547.882	9009
547.98	8805
548.079	8903
548.177	8787
548.275	8831
548.373	8956
548.472	8762
548.57	8866
548.668	8848
548.766	8738
548.864	9039
548.963	8843
549.061	9014
549.159	8877
549.257	9181
549.355	9009
549.454	9011
549.552	9197
549.65	9177
549.748	9065
549.846	9143
549.944	8800
550.042	8850
550.14	8731
550.238	8761
550.336	8675
550.434	8626
550.532	8612
550.631	8655
550.729	8580
550.827	8726
550.925	8644
551.023	8584
551.121	8650
551.218	8670
551.316	8369
551.414	8544
551.512	8324
551.61	8587
551.708	8724
551.806	8813
551.904	8752
552.002	8787
552.1	8859
552.198	9038
552.296	9353
552.393	9504
552.491	9542
552.589	9615
552.687	9718
552.785	9804
552.882	9958
552.98	10168
553.078	9966
553.176	10040
553.274	9890
553.371	9905
553.469	9932
553.567	9871
553.665	9760
553.762	10040
553.86	9538
553.958	9461
554.055	9205
554.153	9327
554.251	9051
554.348	8984
554.446	8910
554.544	9054
554.641	9234
554.739	8828
554.837	8771
554.934	8830
555.032	8549
555.129	8482
555.227	8833
555.324	12103
555.422	8665
555.519	8321
555.617	8342
555.715	8125
555.812	8677
555.91	8104
556.007	8179
556.105	8147
556.202	8155
556.299	7991
556.397	8020
556.494	8147
556.592	8009
556.689	8141
556.787	7951
556.884	7928
556.981	7937
557.079	7917
557.176	8063
557.273	8016
557.371	8016
557.468	7969
557.566	7973
557.663	7946
557.76	8017
557.857	7914
557.955	7911
558.052	8079
558.149	8164
558.247	8003
558.344	7954
558.441	7956
558.538	7910
558.636	7965
558.733	7993
