Data from 21g_HRC06701__116__360.txt Node

Date: Thu Apr 18 02:09:35 CDT 2024
User: Estudiantes 2
Spectrometer: HR+C0670
Trigger mode: 4
Integration Time (sec): 1.000000E0
Scans to average: 1
Electric dark correction enabled: true
Nonlinearity correction enabled: false
Boxcar width: 0
XAxis mode: Wavelengths
Number of Pixels in Spectrum: 2048
>>>>>Begin Spectral Data<<<<<
407.81	-152.94
407.921	-152.94
408.032	-152.94
408.143	-142.94
408.254	-125.94
408.365	25.06
408.476	235.06
408.587	-13.94
408.699	17.06
408.81	-29.94
408.921	-61.94
409.032	7.06
409.143	30.06
409.254	9.06
409.365	143.06
409.476	-39.94
409.587	14.06
409.698	87.06
409.809	108.06
409.92	-52.94
410.031	-36.94
410.142	85.06
410.253	-10.94
410.364	20.06
410.475	197.06
410.585	966.06
410.696	1062.06
410.807	1086.06
410.918	987.06
411.029	1099.06
411.14	1129.06
411.251	1089.06
411.362	1109.06
411.472	1164.06
411.583	1173.06
411.694	1166.06
411.805	1128.06
411.916	1137.06
412.026	1215.06
412.137	1136.06
412.248	1152.06
412.359	1100.06
412.47	1061.06
412.58	1046.06
412.691	1117.06
412.802	1091.06
412.912	1114.06
413.023	1144.06
413.134	1074.06
413.245	1167.06
413.355	1118.06
413.466	1102.06
413.577	1081.06
413.687	1234.06
413.798	1004.06
413.909	1163.06
414.019	1084.06
414.13	1146.06
414.24	1052.06
414.351	1171.06
414.462	1325.06
414.572	1141.06
414.683	1152.06
414.793	1184.06
414.904	1449.06
415.014	1121.06
415.125	1084.06
415.235	1114.06
415.346	1205.06
415.456	1285.06
415.567	1136.06
415.677	1067.06
415.788	1154.06
415.898	1102.06
416.009	1068.06
416.119	1152.06
416.23	1204.06
416.34	1059.06
416.45	1148.06
416.561	1859.06
416.671	1213.06
416.782	1041.06
416.892	1130.06
417.002	1177.06
417.113	1229.06
417.223	1205.06
417.333	1140.06
417.444	1143.06
417.554	1204.06
417.664	1285.06
417.775	1106.06
417.885	1168.06
417.995	1217.06
418.106	1351.06
418.216	1291.06
418.326	1301.06
418.436	1282.06
418.547	1244.06
418.657	1223.06
418.767	1465.06
418.877	1315.06
418.987	1302.06
419.098	1390.06
419.208	1302.06
419.318	1366.06
419.428	1396.06
419.538	1300.06
419.648	1349.06
419.759	1379.06
419.869	1377.06
419.979	1247.06
420.089	1293.06
420.199	1318.06
420.309	1340.06
420.419	1353.06
420.529	1332.06
420.639	1753.06
420.749	1426.06
420.859	1443.06
420.969	1355.06
421.079	1587.06
421.189	1456.06
421.299	1375.06
421.409	1334.06
421.519	1502.06
421.629	1561.06
421.739	1395.06
421.849	1361.06
421.959	1402.06
422.069	1467.06
422.179	1413.06
422.289	1474.06
422.399	1516.06
422.509	1538.06
422.619	4111.06
422.729	1758.06
422.838	1441.06
422.948	1585.06
423.058	1622.06
423.168	1530.06
423.278	1568.06
423.388	1665.06
423.498	1661.06
423.607	1575.06
423.717	1946.06
423.827	1869.06
423.937	1636.06
424.046	1703.06
424.156	1712.06
424.266	1609.06
424.376	1884.06
424.485	1911.06
424.595	1667.06
424.705	1657.06
424.815	1727.06
424.924	2125.06
425.034	1738.06
425.144	1699.06
425.253	1745.06
425.363	1820.06
425.473	1812.06
425.582	1678.06
425.692	1683.06
425.801	1656.06
425.911	1868.06
426.021	1753.06
426.13	1884.06
426.24	2006.06
426.349	1871.06
426.459	1798.06
426.568	1810.06
426.678	1938.06
426.787	1826.06
426.897	1842.06
427.006	1848.06
427.116	1837.06
427.225	1800.06
427.335	1978.06
427.444	1811.06
427.554	1948.06
427.663	1885.06
427.773	1822.06
427.882	1940.06
427.992	1897.06
428.101	1926.06
428.21	1911.06
428.32	2003.06
428.429	1926.06
428.539	2148.06
428.648	1950.06
428.757	2061.06
428.867	2029.06
428.976	2158.06
429.085	2117.06
429.195	2021.06
429.304	2001.06
429.413	2150.06
429.523	2119.06
429.632	2042.06
429.741	2112.06
429.85	2070.06
429.96	2125.06
430.069	2111.06
430.178	2153.06
430.287	2406.06
430.397	2142.06
430.506	2215.06
430.615	2187.06
430.724	2228.06
430.833	2227.06
430.943	2212.06
431.052	2223.06
431.161	2269.06
431.27	2268.06
431.379	2263.06
431.488	2465.06
431.597	2449.06
431.706	2440.06
431.816	2369.06
431.925	2416.06
432.034	2371.06
432.143	2471.06
432.252	2453.06
432.361	2490.06
432.47	2301.06
432.579	2387.06
432.688	2342.06
432.797	2463.06
432.906	2387.06
433.015	2522.06
433.124	2831.06
433.233	2469.06
433.342	2549.06
433.451	2435.06
433.56	2507.06
433.669	2542.06
433.778	2509.06
433.886	2508.06
433.995	2558.06
434.104	2743.06
434.213	2586.06
434.322	2601.06
434.431	2785.06
434.54	2787.06
434.649	2906.06
434.757	2958.06
434.866	2788.06
434.975	2789.06
435.084	2841.06
435.193	2634.06
435.301	2882.06
435.41	2942.06
435.519	2964.06
435.628	2441.06
435.737	2465.06
435.845	2373.06
435.954	2366.06
436.063	2346.06
436.171	2389.06
436.28	2369.06
436.389	2488.06
436.498	2410.06
436.606	2390.06
436.715	2489.06
436.823	2337.06
436.932	2230.06
437.041	2215.06
437.149	2234.06
437.258	2243.06
437.367	2169.06
437.475	2205.06
437.584	2544.06
437.692	2238.06
437.801	3741.06
437.91	2373.06
438.018	2154.06
438.127	1993.06
438.235	2252.06
438.344	2241.06
438.452	2105.06
438.561	2096.06
438.669	2194.06
438.778	2057.06
438.886	2143.06
438.995	2145.06
439.103	2110.06
439.212	2170.06
439.32	2169.06
439.428	2120.06
439.537	2116.06
439.645	2263.06
439.754	2242.06
439.862	2130.06
439.97	2181.06
440.079	2267.06
440.187	2142.06
440.295	2312.06
440.404	2297.06
440.512	2276.06
440.62	2293.06
440.729	2363.06
440.837	2401.06
440.945	3053.06
441.054	2540.06
441.162	2434.06
441.27	2547.06
441.378	2480.06
441.487	2517.06
441.595	2869.06
441.703	2658.06
441.811	2541.06
441.92	2444.06
442.028	2361.06
442.136	2468.06
442.244	2486.06
442.352	2412.06
442.461	2388.06
442.569	2356.06
442.677	2376.06
442.785	2430.06
442.893	2438.06
443.001	2324.06
443.109	2323.06
443.217	2418.06
443.325	2284.06
443.434	3007.06
443.542	2716.06
443.65	2442.06
443.758	2647.06
443.866	2567.06
443.974	2886.06
444.082	2626.06
444.19	2724.06
444.298	2796.06
444.406	2916.06
444.514	2873.06
444.622	3033.06
444.73	2941.06
444.838	2869.06
444.946	2901.06
445.054	2702.06
445.161	2598.06
445.269	2592.06
445.377	2638.06
445.485	2517.06
445.593	2531.06
445.701	2722.06
445.809	2526.06
445.917	2502.06
446.025	2443.06
446.132	2566.06
446.24	2528.06
446.348	2566.06
446.456	2362.06
446.564	2378.06
446.671	2463.06
446.779	2442.06
446.887	2422.06
446.995	2359.06
447.102	2463.06
447.21	2345.06
447.318	2401.06
447.426	2335.06
447.533	2505.06
447.641	3634.06
447.749	2533.06
447.856	2376.06
447.964	2336.06
448.072	2421.06
448.179	2326.06
448.287	2377.06
448.395	2381.06
448.502	2361.06
448.61	2381.06
448.718	2366.06
448.825	2473.06
448.933	2444.06
449.04	2373.06
449.148	2444.06
449.256	2382.06
449.363	2435.06
449.471	2474.06
449.578	2509.06
449.686	2471.06
449.793	2642.06
449.901	2538.06
450.008	2519.06
450.116	2639.06
450.223	2574.06
450.331	2572.06
450.438	2597.06
450.546	2718.06
450.653	2701.06
450.76	2747.06
450.868	2777.06
450.975	2900.06
451.083	2754.06
451.19	2782.06
451.297	2850.06
451.405	2767.06
451.512	2785.06
451.619	2959.06
451.727	2835.06
451.834	2799.06
451.941	2842.06
452.049	2827.06
452.156	2815.06
452.263	2950.06
452.371	2885.06
452.478	2932.06
452.585	3026.06
452.692	2821.06
452.8	2894.06
452.907	3069.06
453.014	2989.06
453.121	2946.06
453.229	2980.06
453.336	3086.06
453.443	3074.06
453.55	2962.06
453.657	3066.06
453.765	3119.06
453.872	3030.06
453.979	3058.06
454.086	3114.06
454.193	3189.06
454.3	2993.06
454.407	3252.06
454.514	3116.06
454.621	3083.06
454.729	3124.06
454.836	3086.06
454.943	3181.06
455.05	3178.06
455.157	3410.06
455.264	3180.06
455.371	3294.06
455.478	3277.06
455.585	4541.06
455.692	3346.06
455.799	3497.06
455.906	3374.06
456.013	3262.06
456.12	3332.06
456.227	3337.06
456.334	3363.06
456.44	3528.06
456.547	3455.06
456.654	3340.06
456.761	3382.06
456.868	3601.06
456.975	3549.06
457.082	3471.06
457.189	3449.06
457.296	3511.06
457.402	3518.06
457.509	3542.06
457.616	3675.06
457.723	3930.06
457.83	3778.06
457.936	3655.06
458.043	4124.06
458.15	3763.06
458.257	3963.06
458.363	3841.06
458.47	3970.06
458.577	4152.06
458.684	4133.06
458.79	4330.06
458.897	4421.06
459.004	4376.06
459.11	4374.06
459.217	4492.06
459.324	4566.06
459.43	4677.06
459.537	4885.06
459.644	4788.06
459.75	4711.06
459.857	5122.06
459.964	5060.06
460.07	4967.06
460.177	5068.06
460.283	5282.06
460.39	5428.06
460.496	5125.06
460.603	5214.06
460.71	5184.06
460.816	5147.06
460.923	5118.06
461.029	5122.06
461.136	5160.06
461.242	5030.06
461.349	5241.06
461.455	5121.06
461.562	5523.06
461.668	5473.06
461.774	5342.06
461.881	5463.06
461.987	5469.06
462.094	5597.06
462.2	5644.06
462.307	5696.06
462.413	5619.06
462.519	5886.06
462.626	6379.06
462.732	6357.06
462.838	6621.06
462.945	6733.06
463.051	6819.06
463.157	6563.06
463.264	6285.06
463.37	6345.06
463.476	6116.06
463.583	5931.06
463.689	5808.06
463.795	5915.06
463.901	5939.06
464.008	6108.06
464.114	5975.06
464.22	5922.06
464.326	5854.06
464.433	5699.06
464.539	5630.06
464.645	5475.06
464.751	5664.06
464.857	5362.06
464.963	5037.06
465.07	4912.06
465.176	4856.06
465.282	4640.06
465.388	4596.06
465.494	4384.06
465.6	4321.06
465.706	4108.06
465.812	4169.06
465.918	4241.06
466.024	4095.06
466.131	4056.06
466.237	3997.06
466.343	3836.06
466.449	3757.06
466.555	3721.06
466.661	3683.06
466.767	3745.06
466.873	3809.06
466.979	3814.06
467.085	3680.06
467.191	3718.06
467.296	3649.06
467.402	3551.06
467.508	3703.06
467.614	3817.06
467.72	3425.06
467.826	3419.06
467.932	3539.06
468.038	3359.06
468.144	3424.06
468.25	3440.06
468.355	3237.06
468.461	3373.06
468.567	3273.06
468.673	3317.06
468.779	3378.06
468.885	3352.06
468.99	3198.06
469.096	3219.06
469.202	3394.06
469.308	3390.06
469.413	3396.06
469.519	3437.06
469.625	3389.06
469.731	3410.06
469.836	3467.06
469.942	3692.06
470.048	3461.06
470.153	3504.06
470.259	3485.06
470.365	3568.06
470.47	3486.06
470.576	3424.06
470.682	3470.06
470.787	3344.06
470.893	3297.06
470.999	3319.06
471.104	3231.06
471.21	3209.06
471.315	3068.06
471.421	3009.06
471.527	3266.06
471.632	3150.06
471.738	3046.06
471.843	2972.06
471.949	3061.06
472.054	3052.06
472.16	2950.06
472.265	2963.06
472.371	2904.06
472.476	2882.06
472.582	2961.06
472.687	2916.06
472.793	2756.06
472.898	2783.06
473.003	2806.06
473.109	2865.06
473.214	2790.06
473.32	2806.06
473.425	2907.06
473.53	2800.06
473.636	2757.06
473.741	2774.06
473.847	2746.06
473.952	2762.06
474.057	2846.06
474.163	2884.06
474.268	2681.06
474.373	2849.06
474.478	2705.06
474.584	2719.06
474.689	2837.06
474.794	2840.06
474.9	3001.06
475.005	2730.06
475.11	2989.06
475.215	2731.06
475.321	2776.06
475.426	3020.06
475.531	2958.06
475.636	2793.06
475.741	2791.06
475.846	2938.06
475.952	2998.06
476.057	2915.06
476.162	3038.06
476.267	3018.06
476.372	3209.06
476.477	2971.06
476.582	3005.06
476.687	2894.06
476.793	2980.06
476.898	2999.06
477.003	2995.06
477.108	3095.06
477.213	3073.06
477.318	3031.06
477.423	3142.06
477.528	3269.06
477.633	3180.06
477.738	3290.06
477.843	3223.06
477.948	3205.06
478.053	3302.06
478.158	3329.06
478.263	3299.06
478.368	3425.06
478.473	3550.06
478.578	3504.06
478.682	3349.06
478.787	3527.06
478.892	3527.06
478.997	3612.06
479.102	3471.06
479.207	3521.06
479.312	3612.06
479.417	3550.06
479.521	3604.06
479.626	3685.06
479.731	3583.06
479.836	3649.06
479.941	3838.06
480.045	3881.06
480.15	3876.06
480.255	3898.06
480.36	3820.06
480.465	3880.06
480.569	4113.06
480.674	3770.06
480.779	3632.06
480.883	3712.06
480.988	3702.06
481.093	3631.06
481.197	3653.06
481.302	3640.06
481.407	3732.06
481.511	5021.06
481.616	3694.06
481.721	3684.06
481.825	3795.06
481.93	3641.06
482.035	3566.06
482.139	3698.06
482.244	3724.06
482.348	3654.06
482.453	3840.06
482.557	3821.06
482.662	3705.06
482.767	3742.06
482.871	3693.06
482.976	3915.06
483.08	3858.06
483.185	4063.06
483.289	3963.06
483.394	3963.06
483.498	3986.06
483.603	3946.06
483.707	4028.06
483.811	4130.06
483.916	4174.06
484.02	4075.06
484.125	4233.06
484.229	4291.06
484.333	4343.06
484.438	4213.06
484.542	4225.06
484.647	4359.06
484.751	4363.06
484.855	4306.06
484.96	4317.06
485.064	4458.06
485.168	4450.06
485.273	4545.06
485.377	4552.06
485.481	4764.06
485.585	4518.06
485.69	4597.06
485.794	4596.06
485.898	4562.06
486.002	4606.06
486.107	4609.06
486.211	4641.06
486.315	4673.06
486.419	4704.06
486.524	4681.06
486.628	4706.06
486.732	4663.06
486.836	4668.06
486.94	4794.06
487.044	4735.06
487.148	4635.06
487.253	4654.06
487.357	4744.06
487.461	4858.06
487.565	4737.06
487.669	4678.06
487.773	4691.06
487.877	4858.06
487.981	4868.06
488.085	4750.06
488.189	4792.06
488.293	4859.06
488.397	5322.06
488.501	4738.06
488.605	4760.06
488.709	4771.06
488.813	4687.06
488.917	4579.06
489.021	4797.06
489.125	5132.06
489.229	4761.06
489.333	5009.06
489.437	4776.06
489.541	4819.06
489.645	4869.06
489.749	4963.06
489.853	4856.06
489.956	4791.06
490.06	4845.06
490.164	4900.06
490.268	4866.06
490.372	4957.06
490.476	4902.06
490.579	4883.06
490.683	5563.06
490.787	5019.06
490.891	4856.06
490.995	4941.06
491.098	5074.06
491.202	4878.06
491.306	4873.06
491.41	4953.06
491.513	4846.06
491.617	4901.06
491.721	5167.06
491.824	5151.06
491.928	4876.06
492.032	5167.06
492.136	4937.06
492.239	4841.06
492.343	5043.06
492.446	5425.06
492.55	5070.06
492.654	4894.06
492.757	4921.06
492.861	5036.06
492.965	4926.06
493.068	4963.06
493.172	5033.06
493.275	4896.06
493.379	4979.06
493.482	5067.06
493.586	5137.06
493.689	5272.06
493.793	4959.06
493.896	5174.06
494	5103.06
494.103	5207.06
494.207	5397.06
494.31	5469.06
494.414	5110.06
494.517	5106.06
494.621	4905.06
494.724	5034.06
494.828	5042.06
494.931	4881.06
495.034	4905.06
495.138	5134.06
495.241	4889.06
495.345	5795.06
495.448	5188.06
495.551	4947.06
495.655	4947.06
495.758	4963.06
495.861	4866.06
495.965	4948.06
496.068	5038.06
496.171	5203.06
496.274	5020.06
496.378	5035.06
496.481	4975.06
496.584	5035.06
496.687	5041.06
496.791	5190.06
496.894	5147.06
496.997	5189.06
497.1	5248.06
497.204	5283.06
497.307	5187.06
497.41	5564.06
497.513	5612.06
497.616	5353.06
497.719	5554.06
497.823	5678.06
497.926	5756.06
498.029	5883.06
498.132	5997.06
498.235	6141.06
498.338	6252.06
498.441	6506.06
498.544	6559.06
498.647	6715.06
498.75	6975.06
498.853	7339.06
498.956	7384.06
499.059	7933.06
499.163	7984.06
499.266	8289.06
499.369	8697.06
499.471	8961.06
499.574	9554.06
499.677	9723.06
499.78	10347.06
499.883	10841.06
499.986	11293.06
500.089	11837.06
500.192	11823.06
500.295	11791.06
500.398	11772.06
500.501	11655.06
500.604	11098.06
500.707	10763.06
500.809	10394.06
500.912	9794.06
501.015	9333.06
501.118	9053.06
501.221	8571.06
501.324	8032.06
501.426	7795.06
501.529	7333.06
501.632	7006.06
501.735	6769.06
501.837	6616.06
501.94	6251.06
502.043	6121.06
502.146	6199.06
502.248	5921.06
502.351	5748.06
502.454	5718.06
502.557	5431.06
502.659	5358.06
502.762	5303.06
502.865	5083.06
502.967	4989.06
503.07	4975.06
503.173	5023.06
503.275	4797.06
503.378	4792.06
503.48	4710.06
503.583	4781.06
503.686	4702.06
503.788	5019.06
503.891	4702.06
503.993	4935.06
504.096	4699.06
504.198	4710.06
504.301	4665.06
504.403	4721.06
504.506	4678.06
504.608	4551.06
504.711	4481.06
504.813	4511.06
504.916	4250.06
505.018	4125.06
505.121	3979.06
505.223	4031.06
505.326	3884.06
505.428	4044.06
505.531	3881.06
505.633	3796.06
505.735	3763.06
505.838	3686.06
505.94	3623.06
506.042	3602.06
506.145	3613.06
506.247	3616.06
506.35	3478.06
506.452	3637.06
506.554	3562.06
506.656	3498.06
506.759	3478.06
506.861	3529.06
506.963	3473.06
507.066	3443.06
507.168	3537.06
507.27	3362.06
507.372	3312.06
507.475	3362.06
507.577	3435.06
507.679	3356.06
507.781	3254.06
507.883	3373.06
507.986	3219.06
508.088	3337.06
508.19	3356.06
508.292	3324.06
508.394	3169.06
508.496	3289.06
508.598	3250.06
508.701	3232.06
508.803	3282.06
508.905	3152.06
509.007	3209.06
509.109	3282.06
509.211	3226.06
509.313	3119.06
509.415	3182.06
509.517	3177.06
509.619	3082.06
509.721	3148.06
509.823	3150.06
509.925	3208.06
510.027	3079.06
510.129	3204.06
510.231	3119.06
510.333	3084.06
510.435	3107.06
510.537	3195.06
510.639	3164.06
510.741	3133.06
510.843	3212.06
510.945	3118.06
511.047	3230.06
511.148	3194.06
511.25	3062.06
511.352	3198.06
511.454	3034.06
511.556	3209.06
511.658	3149.06
511.76	3313.06
511.861	3310.06
511.963	3104.06
512.065	3114.06
512.167	3125.06
512.268	3393.06
512.37	3284.06
512.472	3239.06
512.574	3197.06
512.676	3255.06
512.777	3160.06
512.879	3159.06
512.981	3195.06
513.082	3226.06
513.184	3199.06
513.286	3663.06
513.387	3318.06
513.489	3376.06
513.591	3287.06
513.692	3384.06
513.794	3305.06
513.896	3114.06
513.997	3249.06
514.099	3223.06
514.2	3281.06
514.302	3314.06
514.404	3335.06
514.505	3334.06
514.607	3397.06
514.708	3314.06
514.81	3430.06
514.911	3453.06
515.013	3613.06
515.114	3540.06
515.216	3498.06
515.317	3516.06
515.419	3586.06
515.52	3565.06
515.622	3572.06
515.723	3659.06
515.825	3805.06
515.926	3722.06
516.027	3822.06
516.129	3782.06
516.23	3879.06
516.332	3862.06
516.433	4031.06
516.534	4118.06
516.636	4062.06
516.737	4146.06
516.838	5315.06
516.94	4465.06
517.041	4599.06
517.142	4671.06
517.244	4778.06
517.345	4679.06
517.446	4841.06
517.547	4959.06
517.649	4757.06
517.75	4813.06
517.851	4802.06
517.952	4944.06
518.054	4754.06
518.155	4687.06
518.256	4489.06
518.357	4606.06
518.458	4343.06
518.56	4362.06
518.661	4290.06
518.762	4219.06
518.863	4325.06
518.964	4278.06
519.065	4116.06
519.166	4075.06
519.268	3968.06
519.369	4325.06
519.47	3969.06
519.571	3986.06
519.672	3878.06
519.773	3811.06
519.874	3865.06
519.975	3910.06
520.076	3850.06
520.177	3884.06
520.278	3817.06
520.379	3869.06
520.48	3733.06
520.581	3722.06
520.682	3831.06
520.783	3705.06
520.884	3859.06
520.985	3843.06
521.086	3679.06
521.187	3786.06
521.288	3708.06
521.389	3764.06
521.489	3660.06
521.59	3705.06
521.691	3811.06
521.792	3674.06
521.893	3861.06
521.994	3862.06
522.095	3776.06
522.195	3797.06
522.296	3874.06
522.397	3741.06
522.498	3673.06
522.599	3665.06
522.699	3714.06
522.8	3620.06
522.901	3762.06
523.002	3765.06
523.102	3925.06
523.203	3717.06
523.304	3976.06
523.405	3633.06
523.505	3717.06
523.606	3753.06
523.707	3825.06
523.807	3779.06
523.908	3742.06
524.009	3855.06
524.109	3694.06
524.21	3711.06
524.31	3799.06
524.411	3782.06
524.512	3906.06
524.612	3856.06
524.713	3846.06
524.813	3793.06
524.914	4037.06
525.014	9537.06
525.115	4164.06
525.216	3775.06
525.316	3813.06
525.417	3741.06
525.517	3705.06
525.618	3825.06
525.718	3697.06
525.819	3782.06
525.919	3868.06
526.019	3762.06
526.12	3836.06
526.22	3823.06
526.321	3741.06
526.421	3757.06
526.522	3759.06
526.622	3762.06
526.722	3723.06
526.823	3814.06
526.923	3838.06
527.023	3836.06
527.124	3813.06
527.224	3844.06
527.324	3702.06
527.425	3822.06
527.525	3767.06
527.625	3758.06
527.726	3733.06
527.826	3926.06
527.926	3822.06
528.026	3799.06
528.127	3719.06
528.227	3808.06
528.327	3865.06
528.427	3872.06
528.528	3802.06
528.628	3915.06
528.728	3835.06
528.828	3866.06
528.928	3873.06
529.029	3823.06
529.129	3841.06
529.229	3818.06
529.329	3783.06
529.429	3929.06
529.529	3989.06
529.629	3788.06
529.729	3812.06
529.829	3923.06
529.93	3734.06
530.03	3893.06
530.13	3816.06
530.23	3787.06
530.33	3825.06
530.43	3830.06
530.53	3859.06
530.63	3761.06
530.73	3660.06
530.83	3656.06
530.93	3730.06
531.03	3678.06
531.13	3856.06
531.23	3677.06
531.33	3705.06
531.429	3807.06
531.529	3826.06
531.629	3713.06
531.729	3634.06
531.829	3653.06
531.929	3747.06
532.029	3744.06
532.129	3723.06
532.229	3748.06
532.328	3589.06
532.428	3718.06
532.528	3600.06
532.628	3535.06
532.728	3724.06
532.827	3518.06
532.927	3756.06
533.027	3642.06
533.127	3843.06
533.227	3608.06
533.326	3724.06
533.426	3592.06
533.526	3720.06
533.625	3667.06
533.725	3857.06
533.825	3632.06
533.924	3488.06
534.024	3394.06
534.124	3403.06
534.223	3497.06
534.323	3919.06
534.423	3481.06
534.522	3462.06
534.622	3388.06
534.722	3472.06
534.821	3488.06
534.921	3426.06
535.02	3395.06
535.12	3532.06
535.219	3469.06
535.319	3522.06
535.419	3398.06
535.518	3321.06
535.618	3341.06
535.717	3463.06
535.817	3183.06
535.916	3231.06
536.016	3381.06
536.115	3215.06
536.215	3232.06
536.314	3162.06
536.413	3137.06
536.513	3254.06
536.612	3225.06
536.712	3056.06
536.811	3170.06
536.91	3103.06
537.01	3076.06
537.109	3121.06
537.209	3067.06
537.308	3138.06
537.407	3027.06
537.507	3103.06
537.606	3042.06
537.705	3112.06
537.805	3082.06
