Data from 21g_HRC06701__89__333.txt Node

Date: Thu Apr 18 02:09:08 CDT 2024
User: Estudiantes 2
Spectrometer: HR+C0670
Trigger mode: 4
Integration Time (sec): 1.000000E0
Scans to average: 1
Electric dark correction enabled: true
Nonlinearity correction enabled: false
Boxcar width: 0
XAxis mode: Wavelengths
Number of Pixels in Spectrum: 2048
>>>>>Begin Spectral Data<<<<<
407.81	-126.25
407.921	-126.25
408.032	-126.25
408.143	-96.25
408.254	-141.25
408.365	45.75
408.476	279.75
408.587	-54.25
408.699	-1.25
408.81	-10.25
408.921	-57.25
409.032	-59.25
409.143	21.75
409.254	36.75
409.365	85.75
409.476	-25.25
409.587	38.75
409.698	62.75
409.809	58.75
409.92	25.75
410.031	-45.25
410.142	24.75
410.253	61.75
410.364	20.75
410.475	27.75
410.585	410.75
410.696	457.75
410.807	440.75
410.918	429.75
411.029	525.75
411.14	413.75
411.251	393.75
411.362	517.75
411.472	472.75
411.583	447.75
411.694	518.75
411.805	457.75
411.916	401.75
412.026	508.75
412.137	501.75
412.248	407.75
412.359	459.75
412.47	427.75
412.58	339.75
412.691	431.75
412.802	463.75
412.912	438.75
413.023	432.75
413.134	414.75
413.245	506.75
413.355	385.75
413.466	444.75
413.577	478.75
413.687	500.75
413.798	350.75
413.909	520.75
414.019	432.75
414.13	440.75
414.24	451.75
414.351	493.75
414.462	595.75
414.572	527.75
414.683	511.75
414.793	401.75
414.904	785.75
415.014	440.75
415.125	404.75
415.235	522.75
415.346	612.75
415.456	559.75
415.567	470.75
415.677	522.75
415.788	486.75
415.898	431.75
416.009	436.75
416.119	468.75
416.23	443.75
416.34	393.75
416.45	466.75
416.561	1239.75
416.671	599.75
416.782	403.75
416.892	442.75
417.002	468.75
417.113	551.75
417.223	442.75
417.333	436.75
417.444	491.75
417.554	517.75
417.664	528.75
417.775	407.75
417.885	504.75
417.995	465.75
418.106	596.75
418.216	521.75
418.326	489.75
418.436	464.75
418.547	528.75
418.657	471.75
418.767	549.75
418.877	519.75
418.987	495.75
419.098	520.75
419.208	532.75
419.318	603.75
419.428	572.75
419.538	472.75
419.648	577.75
419.759	545.75
419.869	591.75
419.979	572.75
420.089	505.75
420.199	464.75
420.309	561.75
420.419	580.75
420.529	541.75
420.639	1007.75
420.749	638.75
420.859	588.75
420.969	561.75
421.079	808.75
421.189	632.75
421.299	580.75
421.409	546.75
421.519	660.75
421.629	617.75
421.739	575.75
421.849	541.75
421.959	522.75
422.069	617.75
422.179	550.75
422.289	514.75
422.399	557.75
422.509	726.75
422.619	3114.75
422.729	870.75
422.838	543.75
422.948	569.75
423.058	558.75
423.168	639.75
423.278	611.75
423.388	615.75
423.498	686.75
423.607	670.75
423.717	927.75
423.827	865.75
423.937	676.75
424.046	685.75
424.156	733.75
424.266	694.75
424.376	841.75
424.485	815.75
424.595	721.75
424.705	622.75
424.815	635.75
424.924	1130.75
425.034	764.75
425.144	600.75
425.253	706.75
425.363	754.75
425.473	748.75
425.582	633.75
425.692	708.75
425.801	609.75
425.911	791.75
426.021	728.75
426.13	815.75
426.24	887.75
426.349	837.75
426.459	770.75
426.568	693.75
426.678	848.75
426.787	743.75
426.897	692.75
427.006	719.75
427.116	799.75
427.225	704.75
427.335	799.75
427.444	761.75
427.554	792.75
427.663	730.75
427.773	753.75
427.882	826.75
427.992	737.75
428.101	729.75
428.21	770.75
428.32	758.75
428.429	733.75
428.539	1125.75
428.648	749.75
428.757	837.75
428.867	827.75
428.976	963.75
429.085	818.75
429.195	758.75
429.304	830.75
429.413	838.75
429.523	861.75
429.632	815.75
429.741	809.75
429.85	730.75
429.96	885.75
430.069	831.75
430.178	766.75
430.287	1113.75
430.397	839.75
430.506	791.75
430.615	810.75
430.724	944.75
430.833	861.75
430.943	897.75
431.052	881.75
431.161	839.75
431.27	886.75
431.379	917.75
431.488	999.75
431.597	961.75
431.706	1019.75
431.816	863.75
431.925	882.75
432.034	914.75
432.143	998.75
432.252	905.75
432.361	987.75
432.47	1004.75
432.579	913.75
432.688	880.75
432.797	1001.75
432.906	857.75
433.015	951.75
433.124	1346.75
433.233	985.75
433.342	955.75
433.451	935.75
433.56	912.75
433.669	912.75
433.778	900.75
433.886	971.75
433.995	920.75
434.104	1093.75
434.213	1040.75
434.322	934.75
434.431	1100.75
434.54	1076.75
434.649	1175.75
434.757	1039.75
434.866	1033.75
434.975	1066.75
435.084	1045.75
435.193	1054.75
435.301	1247.75
435.41	1337.75
435.519	1388.75
435.628	997.75
435.737	879.75
435.845	881.75
435.954	914.75
436.063	929.75
436.171	869.75
436.28	947.75
436.389	1060.75
436.498	910.75
436.606	949.75
436.715	1079.75
436.823	846.75
436.932	839.75
437.041	887.75
437.149	897.75
437.258	802.75
437.367	834.75
437.475	845.75
437.584	1063.75
437.692	854.75
437.801	2339.75
437.91	961.75
438.018	813.75
438.127	840.75
438.235	895.75
438.344	800.75
438.452	890.75
438.561	778.75
438.669	822.75
438.778	764.75
438.886	774.75
438.995	732.75
439.103	843.75
439.212	836.75
439.32	848.75
439.428	793.75
439.537	824.75
439.645	879.75
439.754	879.75
439.862	847.75
439.97	847.75
440.079	852.75
440.187	721.75
440.295	948.75
440.404	843.75
440.512	855.75
440.62	877.75
440.729	904.75
440.837	948.75
440.945	1587.75
441.054	983.75
441.162	844.75
441.27	1014.75
441.378	919.75
441.487	932.75
441.595	1310.75
441.703	1016.75
441.811	937.75
441.92	902.75
442.028	852.75
442.136	906.75
442.244	987.75
442.352	943.75
442.461	843.75
442.569	793.75
442.677	916.75
442.785	880.75
442.893	874.75
443.001	869.75
443.109	772.75
443.217	833.75
443.325	818.75
443.434	1357.75
443.542	1105.75
443.65	908.75
443.758	1049.75
443.866	921.75
443.974	1170.75
444.082	1028.75
444.19	930.75
444.298	1060.75
444.406	1113.75
444.514	1011.75
444.622	1069.75
444.73	1108.75
444.838	1088.75
444.946	1080.75
445.054	982.75
445.161	987.75
445.269	925.75
445.377	975.75
445.485	1022.75
445.593	926.75
445.701	1118.75
445.809	1028.75
445.917	908.75
446.025	814.75
446.132	998.75
446.24	1015.75
446.348	927.75
446.456	869.75
446.564	980.75
446.671	922.75
446.779	864.75
446.887	903.75
446.995	903.75
447.102	914.75
447.21	971.75
447.318	939.75
447.426	833.75
447.533	1141.75
447.641	2133.75
447.749	1051.75
447.856	915.75
447.964	945.75
448.072	1028.75
448.179	889.75
448.287	965.75
448.395	936.75
448.502	882.75
448.61	988.75
448.718	887.75
448.825	975.75
448.933	942.75
449.04	903.75
449.148	909.75
449.256	979.75
449.363	991.75
449.471	933.75
449.578	1020.75
449.686	901.75
449.793	1054.75
449.901	956.75
450.008	1071.75
450.116	997.75
450.223	938.75
450.331	1038.75
450.438	1055.75
450.546	1014.75
450.653	1076.75
450.76	1109.75
450.868	1024.75
450.975	1276.75
451.083	1197.75
451.19	1137.75
451.297	1101.75
451.405	1169.75
451.512	1059.75
451.619	1208.75
451.727	1216.75
451.834	1077.75
451.941	1086.75
452.049	1145.75
452.156	1183.75
452.263	1124.75
452.371	1114.75
452.478	1207.75
452.585	1197.75
452.692	1107.75
452.8	1223.75
452.907	1301.75
453.014	1186.75
453.121	1096.75
453.229	1203.75
453.336	1190.75
453.443	1266.75
453.55	1168.75
453.657	1156.75
453.765	1239.75
453.872	1219.75
453.979	1225.75
454.086	1207.75
454.193	1197.75
454.3	1135.75
454.407	1287.75
454.514	1287.75
454.621	1178.75
454.729	1119.75
454.836	1232.75
454.943	1303.75
455.05	1277.75
455.157	1331.75
455.264	1255.75
455.371	1240.75
455.478	1209.75
455.585	1439.75
455.692	1304.75
455.799	1341.75
455.906	1239.75
456.013	1238.75
456.12	1210.75
456.227	1287.75
456.334	1391.75
456.44	1391.75
456.547	1280.75
456.654	1297.75
456.761	1323.75
456.868	1341.75
456.975	1409.75
457.082	1270.75
457.189	1205.75
457.296	1286.75
457.402	1320.75
457.509	1251.75
457.616	1344.75
457.723	1479.75
457.83	1341.75
457.936	1276.75
458.043	1644.75
458.15	1354.75
458.257	1402.75
458.363	1437.75
458.47	1412.75
458.577	1491.75
458.684	1436.75
458.79	1478.75
458.897	1561.75
459.004	1599.75
459.11	1572.75
459.217	1547.75
459.324	1644.75
459.43	1727.75
459.537	1889.75
459.644	1601.75
459.75	1574.75
459.857	2008.75
459.964	1688.75
460.07	1797.75
460.177	1769.75
460.283	1757.75
460.39	1922.75
460.496	1821.75
460.603	1782.75
460.71	1765.75
460.816	1775.75
460.923	1689.75
461.029	1750.75
461.136	1840.75
461.242	1784.75
461.349	1723.75
461.455	1725.75
461.562	2067.75
461.668	1868.75
461.774	1745.75
461.881	1884.75
461.987	1833.75
462.094	1859.75
462.2	1895.75
462.307	1869.75
462.413	1868.75
462.519	1951.75
462.626	2042.75
462.732	2063.75
462.838	2142.75
462.945	2316.75
463.051	2171.75
463.157	2134.75
463.264	2105.75
463.37	2143.75
463.476	2095.75
463.583	2092.75
463.689	1953.75
463.795	1982.75
463.901	2020.75
464.008	2157.75
464.114	1929.75
464.22	1972.75
464.326	1999.75
464.433	1820.75
464.539	1892.75
464.645	1898.75
464.751	2017.75
464.857	1791.75
464.963	1631.75
465.07	1751.75
465.176	1623.75
465.282	1592.75
465.388	1682.75
465.494	1408.75
465.6	1500.75
465.706	1397.75
465.812	1360.75
465.918	1502.75
466.024	1424.75
466.131	1416.75
466.237	1400.75
466.343	1297.75
466.449	1265.75
466.555	1249.75
466.661	1289.75
466.767	1264.75
466.873	1307.75
466.979	1417.75
467.085	1296.75
467.191	1245.75
467.296	1157.75
467.402	1256.75
467.508	1284.75
467.614	1364.75
467.72	1228.75
467.826	1162.75
467.932	1181.75
468.038	1193.75
468.144	1198.75
468.25	1170.75
468.355	1107.75
468.461	1211.75
468.567	1101.75
468.673	1107.75
468.779	1167.75
468.885	1126.75
468.99	1125.75
469.096	1156.75
469.202	1250.75
469.308	1188.75
469.413	1242.75
469.519	1240.75
469.625	1179.75
469.731	1209.75
469.836	1171.75
469.942	1351.75
470.048	1241.75
470.153	1225.75
470.259	1205.75
470.365	1296.75
470.47	1269.75
470.576	1189.75
470.682	1180.75
470.787	1195.75
470.893	1122.75
470.999	1124.75
471.104	1184.75
471.21	1086.75
471.315	1005.75
471.421	1022.75
471.527	1296.75
471.632	1145.75
471.738	1107.75
471.843	1090.75
471.949	1038.75
472.054	1056.75
472.16	1027.75
472.265	989.75
472.371	969.75
472.476	1025.75
472.582	1124.75
472.687	979.75
472.793	979.75
472.898	1025.75
473.003	992.75
473.109	920.75
473.214	944.75
473.32	906.75
473.425	1024.75
473.53	1002.75
473.636	949.75
473.741	965.75
473.847	928.75
473.952	953.75
474.057	997.75
474.163	1064.75
474.268	992.75
474.373	1009.75
474.478	879.75
474.584	925.75
474.689	1009.75
474.794	981.75
474.9	1289.75
475.005	932.75
475.11	1097.75
475.215	955.75
475.321	976.75
475.426	1132.75
475.531	1091.75
475.636	1023.75
475.741	936.75
475.846	1040.75
475.952	1213.75
476.057	1036.75
476.162	1062.75
476.267	1204.75
476.372	1257.75
476.477	986.75
476.582	1110.75
476.687	1015.75
476.793	1025.75
476.898	970.75
477.003	1068.75
477.108	981.75
477.213	942.75
477.318	1067.75
477.423	1055.75
477.528	1142.75
477.633	1168.75
477.738	1088.75
477.843	1063.75
477.948	1052.75
478.053	1083.75
478.158	1064.75
478.263	1076.75
478.368	1152.75
478.473	1187.75
478.578	1154.75
478.682	1151.75
478.787	1146.75
478.892	1147.75
478.997	1230.75
479.102	1127.75
479.207	1097.75
479.312	1261.75
479.417	1243.75
479.521	1145.75
479.626	1243.75
479.731	1234.75
479.836	1130.75
479.941	1307.75
480.045	1305.75
480.15	1272.75
480.255	1268.75
480.36	1227.75
480.465	1323.75
480.569	1418.75
480.674	1226.75
480.779	1172.75
480.883	1128.75
480.988	1221.75
481.093	1241.75
481.197	1168.75
481.302	1164.75
481.407	1254.75
481.511	2512.75
481.616	1274.75
481.721	1228.75
481.825	1376.75
481.93	1116.75
482.035	1148.75
482.139	1257.75
482.244	1220.75
482.348	1163.75
482.453	1244.75
482.557	1297.75
482.662	1219.75
482.767	1207.75
482.871	1132.75
482.976	1150.75
483.08	1246.75
483.185	1413.75
483.289	1204.75
483.394	1274.75
483.498	1319.75
483.603	1209.75
483.707	1302.75
483.811	1348.75
483.916	1384.75
484.02	1252.75
484.125	1425.75
484.229	1296.75
484.333	1435.75
484.438	1367.75
484.542	1335.75
484.647	1271.75
484.751	1385.75
484.855	1368.75
484.96	1300.75
485.064	1364.75
485.168	1434.75
485.273	1275.75
485.377	1349.75
485.481	1662.75
485.585	1384.75
485.69	1404.75
485.794	1476.75
485.898	1472.75
486.002	1437.75
486.107	1506.75
486.211	1494.75
486.315	1422.75
486.419	1535.75
486.524	1552.75
486.628	1444.75
486.732	1462.75
486.836	1472.75
486.94	1550.75
487.044	1446.75
487.148	1460.75
487.253	1405.75
487.357	1485.75
487.461	1619.75
487.565	1517.75
487.669	1430.75
487.773	1456.75
487.877	1576.75
487.981	1479.75
488.085	1504.75
488.189	1450.75
488.293	1564.75
488.397	1968.75
488.501	1560.75
488.605	1486.75
488.709	1489.75
488.813	1468.75
488.917	1465.75
489.021	1504.75
489.125	1788.75
489.229	1528.75
489.333	1654.75
489.437	1578.75
489.541	1604.75
489.645	1496.75
489.749	1552.75
489.853	1620.75
489.956	1489.75
490.06	1500.75
490.164	1573.75
490.268	1494.75
490.372	1517.75
490.476	1494.75
490.579	1547.75
490.683	2140.75
490.787	1668.75
490.891	1612.75
490.995	1543.75
491.098	1519.75
491.202	1545.75
491.306	1562.75
491.41	1505.75
491.513	1500.75
491.617	1605.75
491.721	1769.75
491.824	1741.75
491.928	1628.75
492.032	1743.75
492.136	1547.75
492.239	1572.75
492.343	1519.75
492.446	1933.75
492.55	1679.75
492.654	1532.75
492.757	1513.75
492.861	1604.75
492.965	1576.75
493.068	1540.75
493.172	1522.75
493.275	1557.75
493.379	1514.75
493.482	1648.75
493.586	1761.75
493.689	1774.75
493.793	1556.75
493.896	1726.75
494	1678.75
494.103	1641.75
494.207	1882.75
494.31	1933.75
494.414	1647.75
494.517	1565.75
494.621	1556.75
494.724	1578.75
494.828	1542.75
494.931	1544.75
495.034	1557.75
495.138	1709.75
495.241	1571.75
495.345	2252.75
495.448	1701.75
495.551	1553.75
495.655	1564.75
495.758	1505.75
495.861	1545.75
495.965	1595.75
496.068	1577.75
496.171	1576.75
496.274	1574.75
496.378	1537.75
496.481	1589.75
496.584	1576.75
496.687	1604.75
496.791	1580.75
496.894	1579.75
496.997	1551.75
497.1	1578.75
497.204	1612.75
497.307	1618.75
497.41	1730.75
497.513	1788.75
497.616	1706.75
497.719	1615.75
497.823	1630.75
497.926	1691.75
498.029	1748.75
498.132	1735.75
498.235	1762.75
498.338	1780.75
498.441	1872.75
498.544	1860.75
498.647	1971.75
498.75	2045.75
498.853	2183.75
498.956	2145.75
499.059	2332.75
499.163	2223.75
499.266	2305.75
499.369	2337.75
499.471	2404.75
499.574	2617.75
499.677	2689.75
499.78	2799.75
499.883	2906.75
499.986	3199.75
500.089	3209.75
500.192	3332.75
500.295	3363.75
500.398	3319.75
500.501	3293.75
500.604	3124.75
500.707	3012.75
500.809	2925.75
500.912	2917.75
501.015	2750.75
501.118	2525.75
501.221	2493.75
501.324	2307.75
501.426	2241.75
501.529	2108.75
501.632	2136.75
501.735	1933.75
501.837	1853.75
501.94	1813.75
502.043	1810.75
502.146	1790.75
502.248	1791.75
502.351	1678.75
502.454	1650.75
502.557	1595.75
502.659	1718.75
502.762	1527.75
502.865	1475.75
502.967	1527.75
503.07	1484.75
503.173	1518.75
503.275	1512.75
503.378	1460.75
503.48	1388.75
503.583	1509.75
503.686	1481.75
503.788	1677.75
503.891	1445.75
503.993	1671.75
504.096	1401.75
504.198	1463.75
504.301	1441.75
504.403	1368.75
504.506	1437.75
504.608	1313.75
504.711	1341.75
504.813	1359.75
504.916	1329.75
505.018	1318.75
505.121	1191.75
505.223	1237.75
505.326	1258.75
505.428	1231.75
505.531	1216.75
505.633	1240.75
505.735	1099.75
505.838	1175.75
505.94	1252.75
506.042	1084.75
506.145	1088.75
506.247	1215.75
506.35	1115.75
506.452	1165.75
506.554	1216.75
506.656	1169.75
506.759	1058.75
506.861	1116.75
506.963	1149.75
507.066	1132.75
507.168	1248.75
507.27	1169.75
507.372	1104.75
507.475	1081.75
507.577	1166.75
507.679	1098.75
507.781	1000.75
507.883	1054.75
507.986	1066.75
508.088	1101.75
508.19	1061.75
508.292	1152.75
508.394	1030.75
508.496	1006.75
508.598	1040.75
508.701	1018.75
508.803	1068.75
508.905	972.75
509.007	1101.75
509.109	1105.75
509.211	1029.75
509.313	1059.75
509.415	978.75
509.517	1073.75
509.619	1035.75
509.721	1075.75
509.823	1034.75
509.925	1215.75
510.027	1004.75
510.129	1030.75
510.231	1057.75
510.333	1014.75
510.435	989.75
510.537	1150.75
510.639	1116.75
510.741	993.75
510.843	1071.75
510.945	1080.75
511.047	1027.75
511.148	1010.75
511.25	996.75
511.352	1068.75
511.454	958.75
511.556	1086.75
511.658	1040.75
511.76	1078.75
511.861	1164.75
511.963	970.75
512.065	960.75
512.167	1000.75
512.268	1267.75
512.37	1107.75
512.472	996.75
512.574	1117.75
512.676	1108.75
512.777	984.75
512.879	922.75
512.981	1033.75
513.082	1043.75
513.184	1002.75
513.286	1532.75
513.387	1137.75
513.489	1197.75
513.591	1156.75
513.692	1151.75
513.794	1079.75
513.896	993.75
513.997	1006.75
514.099	959.75
514.2	1147.75
514.302	1132.75
514.404	1041.75
514.505	1039.75
514.607	1157.75
514.708	1053.75
514.81	1151.75
514.911	1210.75
515.013	1179.75
515.114	1177.75
515.216	1101.75
515.317	1117.75
515.419	1095.75
515.52	1174.75
515.622	1168.75
515.723	1126.75
515.825	1247.75
515.926	1228.75
516.027	1115.75
516.129	1127.75
516.23	1269.75
516.332	1233.75
516.433	1264.75
516.534	1383.75
516.636	1259.75
516.737	1216.75
516.838	2343.75
516.94	1515.75
517.041	1349.75
517.142	1525.75
517.244	1544.75
517.345	1489.75
517.446	1441.75
517.547	1562.75
517.649	1456.75
517.75	1510.75
517.851	1494.75
517.952	1734.75
518.054	1455.75
518.155	1608.75
518.256	1430.75
518.357	1482.75
518.458	1299.75
518.56	1369.75
518.661	1345.75
518.762	1373.75
518.863	1474.75
518.964	1357.75
519.065	1264.75
519.166	1265.75
519.268	1248.75
519.369	1478.75
519.47	1303.75
519.571	1321.75
519.672	1194.75
519.773	1210.75
519.874	1290.75
519.975	1299.75
520.076	1238.75
520.177	1384.75
520.278	1240.75
520.379	1289.75
520.48	1200.75
520.581	1156.75
520.682	1188.75
520.783	1197.75
520.884	1302.75
520.985	1237.75
521.086	1207.75
521.187	1329.75
521.288	1180.75
521.389	1295.75
521.489	1210.75
521.59	1152.75
521.691	1274.75
521.792	1217.75
521.893	1321.75
521.994	1308.75
522.095	1236.75
522.195	1319.75
522.296	1359.75
522.397	1303.75
522.498	1299.75
522.599	1162.75
522.699	1238.75
522.8	1271.75
522.901	1274.75
523.002	1241.75
523.102	1444.75
523.203	1220.75
523.304	1373.75
523.405	1207.75
523.505	1287.75
523.606	1309.75
523.707	1326.75
523.807	1327.75
523.908	1224.75
524.009	1364.75
524.109	1307.75
524.21	1192.75
524.31	1332.75
524.411	1421.75
524.512	1396.75
524.612	1314.75
524.713	1464.75
524.813	1335.75
524.914	1521.75
525.014	5930.75
525.115	1765.75
525.216	1223.75
525.316	1302.75
525.417	1337.75
525.517	1231.75
525.618	1273.75
525.718	1294.75
525.819	1207.75
525.919	1280.75
526.019	1242.75
526.12	1320.75
526.22	1208.75
526.321	1256.75
526.421	1259.75
526.522	1234.75
526.622	1174.75
526.722	1270.75
526.823	1267.75
526.923	1289.75
527.023	1362.75
527.124	1231.75
527.224	1310.75
527.324	1226.75
527.425	1289.75
527.525	1163.75
527.625	1265.75
527.726	1315.75
527.826	1372.75
527.926	1236.75
528.026	1285.75
528.127	1228.75
528.227	1290.75
528.327	1384.75
528.427	1210.75
528.528	1272.75
528.628	1354.75
528.728	1316.75
528.828	1336.75
528.928	1359.75
529.029	1269.75
529.129	1260.75
529.229	1278.75
529.329	1328.75
529.429	1321.75
529.529	1328.75
529.629	1342.75
529.729	1293.75
529.829	1393.75
529.93	1266.75
530.03	1312.75
530.13	1267.75
530.23	1268.75
530.33	1383.75
530.43	1251.75
530.53	1273.75
530.63	1297.75
530.73	1186.75
530.83	1118.75
530.93	1177.75
531.03	1163.75
531.13	1285.75
531.23	1176.75
531.33	1238.75
531.429	1289.75
531.529	1421.75
531.629	1323.75
531.729	1138.75
531.829	1151.75
531.929	1201.75
532.029	1207.75
532.129	1204.75
532.229	1263.75
532.328	1200.75
532.428	1144.75
532.528	1119.75
532.628	1123.75
532.728	1137.75
532.827	1125.75
532.927	1229.75
533.027	1179.75
533.127	1290.75
533.227	1257.75
533.326	1234.75
533.426	1125.75
533.526	1317.75
533.625	1323.75
533.725	1435.75
533.825	1241.75
533.924	1162.75
534.024	1062.75
534.124	1071.75
534.223	1209.75
534.323	1536.75
534.423	1182.75
534.522	1200.75
534.622	1086.75
534.722	1021.75
534.821	1196.75
534.921	1090.75
535.02	1019.75
535.12	1195.75
535.219	1272.75
535.319	1218.75
535.419	1178.75
535.518	1161.75
535.618	1152.75
535.717	1217.75
535.817	1113.75
535.916	1004.75
536.016	1087.75
536.115	1030.75
536.215	1026.75
536.314	976.75
536.413	998.75
536.513	1076.75
536.612	1034.75
536.712	982.75
536.811	1084.75
536.91	900.75
537.01	951.75
537.109	1136.75
537.209	930.75
537.308	1004.75
537.407	1001.75
537.507	961.75
537.606	1014.75
537.705	1040.75
537.805	1051.75
537.904	969.75
538.003	1008.75
538.102	1131.75
538.202	977.75
538.301	1064.75
538.4	1135.75
538.499	1026.75
538.599	1047.75
538.698	1239.75
538.797	947.75
538.896	996.75
538.995	1048.75
539.095	1014.75
539.194	1145.75
539.293	998.75
539.392	1019.75
539.491	972.75
539.59	971.75
539.689	1177.75
539.789	1070.75
539.888	906.75
539.987	919.75
540.086	978.75
540.185	949.75
