Data from 21g_HRC06701__98__342.txt Node

Date: Thu Apr 18 02:09:17 CDT 2024
User: Estudiantes 2
Spectrometer: HR+C0670
Trigger mode: 4
Integration Time (sec): 1.000000E0
Scans to average: 1
Electric dark correction enabled: true
Nonlinearity correction enabled: false
Boxcar width: 0
XAxis mode: Wavelengths
Number of Pixels in Spectrum: 2048
>>>>>Begin Spectral Data<<<<<
407.81	-89.94
407.921	-89.94
408.032	-89.94
408.143	-148.94
408.254	-145.94
408.365	65.06
408.476	263.06
408.587	-40.94
408.699	0.06
408.81	29.06
408.921	-59.94
409.032	-17.94
409.143	47.06
409.254	16.06
409.365	62.06
409.476	-14.94
409.587	-7.94
409.698	44.06
409.809	150.06
409.92	-17.94
410.031	-58.94
410.142	73.06
410.253	55.06
410.364	67.06
410.475	1804.06
410.585	8362.06
410.696	8843.06
410.807	8651.06
410.918	8731.06
411.029	8787.06
411.14	8899.06
411.251	8871.06
411.362	8825.06
411.472	8911.06
411.583	8855.06
411.694	9128.06
411.805	9218.06
411.916	9178.06
412.026	9234.06
412.137	9141.06
412.248	9063.06
412.359	9162.06
412.47	8654.06
412.58	8681.06
412.691	8864.06
412.802	8783.06
412.912	8732.06
413.023	8803.06
413.134	8731.06
413.245	8664.06
413.355	8834.06
413.466	8767.06
413.577	8767.06
413.687	8906.06
413.798	8716.06
413.909	8919.06
414.019	8984.06
414.13	9028.06
414.24	8966.06
414.351	9050.06
414.462	9319.06
414.572	9018.06
414.683	8996.06
414.793	9089.06
414.904	9328.06
415.014	8882.06
415.125	8922.06
415.235	9041.06
415.346	9234.06
415.456	9070.06
415.567	8986.06
415.677	8885.06
415.788	9051.06
415.898	8883.06
416.009	8853.06
416.119	8852.06
416.23	8922.06
416.34	8836.06
416.45	9007.06
416.561	9695.06
416.671	9172.06
416.782	8913.06
416.892	9189.06
417.002	9117.06
417.113	9328.06
417.223	9204.06
417.333	9190.06
417.444	9331.06
417.554	9528.06
417.664	9648.06
417.775	9434.06
417.885	9593.06
417.995	9518.06
418.106	10105.06
418.216	9843.06
418.326	10064.06
418.436	10239.06
418.547	10253.06
418.657	10161.06
418.767	10414.06
418.877	10403.06
418.987	10532.06
419.098	10392.06
419.208	10569.06
419.318	10390.06
419.428	10565.06
419.538	10317.06
419.648	10456.06
419.759	10474.06
419.869	10450.06
419.979	10358.06
420.089	10493.06
420.199	10299.06
420.309	10493.06
420.419	10433.06
420.529	10617.06
420.639	10928.06
420.749	10693.06
420.859	10753.06
420.969	10819.06
421.079	10889.06
421.189	10638.06
421.299	10515.06
421.409	10748.06
421.519	10936.06
421.629	11099.06
421.739	11216.06
421.849	11226.06
421.959	11246.06
422.069	11326.06
422.179	11251.06
422.289	11415.06
422.399	11636.06
422.509	11707.06
422.619	14274.06
422.729	12124.06
422.838	11814.06
422.948	12167.06
423.058	12254.06
423.168	12276.06
423.278	12385.06
423.388	12495.06
423.498	12801.06
423.607	12790.06
423.717	13200.06
423.827	13171.06
423.937	12972.06
424.046	13037.06
424.156	13223.06
424.266	13080.06
424.376	13291.06
424.485	13286.06
424.595	13375.06
424.705	13228.06
424.815	13325.06
424.924	13948.06
425.034	13289.06
425.144	13568.06
425.253	13358.06
425.363	13485.06
425.473	13586.06
425.582	13239.06
425.692	13513.06
425.801	13377.06
425.911	13776.06
426.021	13638.06
426.13	13799.06
426.24	13847.06
426.349	14039.06
426.459	13942.06
426.568	14004.06
426.678	14044.06
426.787	13974.06
426.897	14207.06
427.006	14115.06
427.116	14314.06
427.225	14284.06
427.335	14493.06
427.444	14360.06
427.554	14221.06
427.663	14450.06
427.773	14571.06
427.882	14571.06
427.992	14571.06
428.101	14571.06
428.21	14571.06
428.32	14571.06
428.429	14571.06
428.539	14571.06
428.648	14571.06
428.757	14571.06
428.867	14571.06
428.976	14571.06
429.085	14571.06
429.195	14571.06
429.304	14571.06
429.413	14571.06
429.523	14571.06
429.632	14571.06
429.741	14571.06
429.85	14571.06
429.96	14571.06
430.069	14571.06
430.178	14571.06
430.287	14571.06
430.397	14571.06
430.506	14571.06
430.615	14571.06
430.724	14571.06
430.833	14571.06
430.943	14571.06
431.052	14571.06
431.161	14571.06
431.27	14571.06
431.379	14571.06
431.488	14571.06
431.597	14571.06
431.706	14571.06
431.816	14571.06
431.925	14571.06
432.034	14571.06
432.143	14571.06
432.252	14571.06
432.361	14571.06
432.47	14571.06
432.579	14571.06
432.688	14571.06
432.797	14571.06
432.906	14571.06
433.015	14571.06
433.124	14571.06
433.233	14571.06
433.342	14571.06
433.451	14571.06
433.56	14571.06
433.669	14571.06
433.778	14571.06
433.886	14571.06
433.995	14571.06
434.104	14571.06
434.213	14571.06
434.322	14571.06
434.431	14571.06
434.54	14571.06
434.649	14571.06
434.757	14571.06
434.866	14571.06
434.975	14571.06
435.084	14571.06
435.193	14571.06
435.301	14571.06
435.41	14571.06
435.519	14571.06
435.628	14571.06
435.737	14571.06
435.845	14571.06
435.954	14571.06
436.063	14571.06
436.171	14571.06
436.28	14571.06
436.389	14571.06
436.498	14571.06
436.606	14571.06
436.715	14571.06
436.823	14571.06
436.932	14571.06
437.041	14571.06
437.149	14571.06
437.258	14571.06
437.367	14571.06
437.475	14571.06
437.584	14571.06
437.692	14571.06
437.801	14571.06
437.91	14571.06
438.018	14571.06
438.127	14571.06
438.235	14571.06
438.344	14571.06
438.452	14571.06
438.561	14571.06
438.669	14571.06
438.778	14571.06
438.886	14571.06
438.995	14571.06
439.103	14571.06
439.212	14571.06
439.32	14571.06
439.428	14571.06
439.537	14571.06
439.645	14571.06
439.754	14571.06
439.862	14571.06
439.97	14571.06
440.079	14571.06
440.187	14571.06
440.295	14571.06
440.404	14571.06
440.512	14571.06
440.62	14571.06
440.729	14571.06
440.837	14571.06
440.945	14571.06
441.054	14571.06
441.162	14571.06
441.27	14571.06
441.378	14571.06
441.487	14571.06
441.595	14571.06
441.703	14571.06
441.811	14571.06
441.92	14571.06
442.028	14571.06
442.136	14571.06
442.244	14571.06
442.352	14571.06
442.461	14571.06
442.569	14571.06
442.677	14571.06
442.785	14571.06
442.893	14571.06
443.001	14571.06
443.109	14571.06
443.217	14571.06
443.325	14571.06
443.434	14571.06
443.542	14571.06
443.65	14571.06
443.758	14571.06
443.866	14571.06
443.974	14571.06
444.082	14571.06
444.19	14571.06
444.298	14571.06
444.406	14571.06
444.514	14571.06
444.622	14571.06
444.73	14571.06
444.838	14571.06
444.946	14571.06
445.054	14571.06
445.161	14571.06
445.269	14571.06
445.377	14571.06
445.485	14571.06
445.593	14571.06
445.701	14571.06
445.809	14571.06
445.917	14571.06
446.025	14571.06
446.132	14571.06
446.24	14571.06
446.348	14571.06
446.456	14571.06
446.564	14571.06
446.671	14571.06
446.779	14571.06
446.887	14571.06
446.995	14571.06
447.102	14571.06
447.21	14571.06
447.318	14571.06
447.426	14571.06
447.533	14571.06
447.641	14571.06
447.749	14571.06
447.856	14571.06
447.964	14571.06
448.072	14571.06
448.179	14571.06
448.287	14571.06
448.395	14571.06
448.502	14571.06
448.61	14571.06
448.718	14571.06
448.825	14571.06
448.933	14571.06
449.04	14571.06
449.148	14571.06
449.256	14571.06
449.363	14571.06
449.471	14571.06
449.578	14571.06
449.686	14571.06
449.793	14571.06
449.901	14571.06
450.008	14571.06
450.116	14571.06
450.223	14571.06
450.331	14571.06
450.438	14571.06
450.546	14571.06
450.653	14571.06
450.76	14571.06
450.868	14571.06
450.975	14571.06
451.083	14571.06
451.19	14571.06
451.297	14571.06
451.405	14571.06
451.512	14571.06
451.619	14571.06
451.727	14571.06
451.834	14571.06
451.941	14571.06
452.049	14571.06
452.156	14571.06
452.263	14571.06
452.371	14571.06
452.478	14571.06
452.585	14571.06
452.692	14571.06
452.8	14571.06
452.907	14571.06
453.014	14571.06
453.121	14571.06
453.229	14571.06
453.336	14571.06
453.443	14571.06
453.55	14571.06
453.657	14571.06
453.765	14571.06
453.872	14571.06
453.979	14571.06
454.086	14571.06
454.193	14571.06
454.3	14571.06
454.407	14571.06
454.514	14571.06
454.621	14571.06
454.729	14571.06
454.836	14571.06
454.943	14571.06
455.05	14571.06
455.157	14571.06
455.264	14571.06
455.371	14571.06
455.478	14571.06
455.585	14571.06
455.692	14571.06
455.799	14571.06
455.906	14571.06
456.013	14571.06
456.12	14571.06
456.227	14571.06
456.334	14571.06
456.44	14571.06
456.547	14571.06
456.654	14571.06
456.761	14571.06
456.868	14571.06
456.975	14571.06
457.082	14571.06
457.189	14571.06
457.296	14571.06
457.402	14571.06
457.509	14571.06
457.616	14571.06
457.723	14571.06
457.83	14571.06
457.936	14571.06
458.043	14571.06
458.15	14571.06
458.257	14571.06
458.363	14571.06
458.47	14571.06
458.577	14571.06
458.684	14571.06
458.79	14571.06
458.897	14571.06
459.004	14571.06
459.11	14571.06
459.217	14571.06
459.324	14571.06
459.43	14571.06
459.537	14571.06
459.644	14571.06
459.75	14571.06
459.857	14571.06
459.964	14571.06
460.07	14571.06
460.177	14571.06
460.283	14571.06
460.39	14571.06
460.496	14571.06
460.603	14571.06
460.71	14571.06
460.816	14571.06
460.923	14571.06
461.029	14571.06
461.136	14571.06
461.242	14571.06
461.349	14571.06
461.455	14571.06
461.562	14571.06
461.668	14571.06
461.774	14571.06
461.881	14571.06
461.987	14571.06
462.094	14571.06
462.2	14571.06
462.307	14571.06
462.413	14571.06
462.519	14571.06
462.626	14571.06
462.732	14571.06
462.838	14571.06
462.945	14571.06
463.051	14571.06
463.157	14571.06
463.264	14571.06
463.37	14571.06
463.476	14571.06
463.583	14571.06
463.689	14571.06
463.795	14571.06
463.901	14571.06
464.008	14571.06
464.114	14571.06
464.22	14571.06
464.326	14571.06
464.433	14571.06
464.539	14571.06
464.645	14571.06
464.751	14571.06
464.857	14571.06
464.963	14571.06
465.07	14571.06
465.176	14571.06
465.282	14571.06
465.388	14571.06
465.494	14571.06
465.6	14571.06
465.706	14571.06
465.812	14571.06
465.918	14571.06
466.024	14571.06
466.131	14571.06
466.237	14571.06
466.343	14571.06
466.449	14571.06
466.555	14571.06
466.661	14571.06
466.767	14571.06
466.873	14571.06
466.979	14571.06
467.085	14571.06
467.191	14571.06
467.296	14571.06
467.402	14571.06
467.508	14571.06
467.614	14571.06
467.72	14571.06
467.826	14571.06
467.932	14571.06
468.038	14571.06
468.144	14571.06
468.25	14571.06
468.355	14571.06
468.461	14571.06
468.567	14571.06
468.673	14571.06
468.779	14571.06
468.885	14571.06
468.99	14571.06
469.096	14571.06
469.202	14571.06
469.308	14571.06
469.413	14571.06
469.519	14571.06
469.625	14571.06
469.731	14571.06
469.836	14571.06
469.942	14571.06
470.048	14571.06
470.153	14571.06
470.259	14571.06
470.365	14571.06
470.47	14571.06
470.576	14571.06
470.682	14571.06
470.787	14571.06
470.893	14571.06
470.999	14571.06
471.104	14571.06
471.21	14571.06
471.315	14571.06
471.421	14571.06
471.527	14571.06
471.632	14571.06
471.738	14571.06
471.843	14571.06
471.949	14571.06
472.054	14571.06
472.16	14571.06
472.265	14571.06
472.371	14571.06
472.476	14571.06
472.582	14571.06
472.687	14571.06
472.793	14571.06
472.898	14571.06
473.003	14571.06
473.109	14571.06
473.214	14571.06
473.32	14571.06
473.425	14571.06
473.53	14571.06
473.636	14571.06
473.741	14571.06
473.847	14571.06
473.952	14571.06
474.057	14571.06
474.163	14571.06
474.268	14571.06
474.373	14571.06
474.478	14571.06
474.584	14571.06
474.689	14571.06
474.794	14571.06
474.9	14571.06
475.005	14571.06
475.11	14571.06
475.215	14571.06
475.321	14571.06
475.426	14571.06
475.531	14571.06
475.636	14571.06
475.741	14571.06
475.846	14571.06
475.952	14571.06
476.057	14571.06
476.162	14571.06
476.267	14571.06
476.372	14571.06
476.477	14571.06
476.582	14571.06
476.687	14571.06
476.793	14571.06
476.898	14571.06
477.003	14571.06
477.108	14571.06
477.213	14571.06
477.318	14571.06
477.423	14571.06
477.528	14571.06
477.633	14571.06
477.738	14571.06
477.843	14571.06
477.948	14571.06
478.053	14571.06
478.158	14571.06
478.263	14571.06
478.368	14571.06
478.473	14571.06
478.578	14571.06
478.682	14571.06
478.787	14571.06
478.892	14571.06
478.997	14571.06
479.102	14571.06
479.207	14571.06
479.312	14571.06
479.417	14571.06
479.521	14571.06
479.626	14571.06
479.731	14571.06
479.836	14571.06
479.941	14571.06
480.045	14571.06
480.15	14571.06
480.255	14571.06
480.36	14571.06
480.465	14571.06
480.569	14571.06
480.674	14571.06
480.779	14571.06
480.883	14571.06
480.988	14571.06
481.093	14571.06
481.197	14571.06
481.302	14571.06
481.407	14571.06
481.511	14571.06
481.616	14571.06
481.721	14571.06
481.825	14571.06
481.93	14571.06
482.035	14571.06
482.139	14571.06
482.244	14571.06
482.348	14571.06
482.453	14571.06
482.557	14571.06
482.662	14571.06
482.767	14571.06
482.871	14571.06
482.976	14571.06
483.08	14571.06
483.185	14571.06
483.289	14571.06
483.394	14571.06
483.498	14571.06
483.603	14571.06
483.707	14571.06
483.811	14571.06
483.916	14571.06
484.02	14571.06
484.125	14571.06
484.229	14571.06
484.333	14571.06
484.438	14571.06
484.542	14571.06
484.647	14571.06
484.751	14571.06
484.855	14571.06
484.96	14571.06
485.064	14571.06
485.168	14571.06
485.273	14571.06
485.377	14571.06
485.481	14571.06
485.585	14571.06
485.69	14571.06
485.794	14571.06
485.898	14571.06
486.002	14571.06
486.107	14571.06
486.211	14571.06
486.315	14571.06
486.419	14571.06
486.524	14571.06
486.628	14571.06
486.732	14571.06
486.836	14571.06
486.94	14571.06
487.044	14571.06
487.148	14571.06
487.253	14571.06
487.357	14571.06
487.461	14571.06
487.565	14571.06
487.669	14571.06
487.773	14571.06
487.877	14571.06
487.981	14571.06
488.085	14571.06
488.189	14571.06
488.293	14571.06
488.397	14571.06
488.501	14571.06
488.605	14571.06
488.709	14571.06
488.813	14571.06
488.917	14571.06
489.021	14571.06
489.125	14571.06
489.229	14571.06
489.333	14571.06
489.437	14571.06
489.541	14571.06
489.645	14571.06
489.749	14571.06
489.853	14571.06
489.956	14571.06
490.06	14571.06
490.164	14571.06
490.268	14571.06
490.372	14571.06
490.476	14571.06
490.579	14571.06
490.683	14571.06
490.787	14571.06
490.891	14571.06
490.995	14571.06
491.098	14571.06
491.202	14571.06
491.306	14571.06
491.41	14571.06
491.513	14571.06
491.617	14571.06
491.721	14571.06
491.824	14571.06
491.928	14571.06
492.032	14571.06
492.136	14571.06
492.239	14571.06
492.343	14571.06
492.446	14571.06
492.55	14571.06
492.654	14571.06
492.757	14571.06
492.861	14571.06
492.965	14571.06
493.068	14571.06
493.172	14571.06
493.275	14571.06
493.379	14571.06
493.482	14571.06
493.586	14571.06
493.689	14571.06
493.793	14571.06
493.896	14571.06
494	14571.06
494.103	14571.06
494.207	14571.06
494.31	14571.06
494.414	14571.06
494.517	14571.06
494.621	14571.06
494.724	14571.06
494.828	14571.06
494.931	14571.06
495.034	14571.06
495.138	14571.06
495.241	14571.06
495.345	14571.06
495.448	14571.06
495.551	14571.06
495.655	14571.06
495.758	14571.06
495.861	14571.06
495.965	14571.06
496.068	14571.06
496.171	14571.06
496.274	14571.06
496.378	14571.06
496.481	14571.06
496.584	14571.06
496.687	14571.06
496.791	14571.06
496.894	14571.06
496.997	14571.06
497.1	14571.06
497.204	14571.06
497.307	14571.06
497.41	14571.06
497.513	14571.06
497.616	14571.06
497.719	14571.06
497.823	14571.06
497.926	14571.06
498.029	14571.06
498.132	14571.06
498.235	14571.06
498.338	14571.06
498.441	14571.06
498.544	14571.06
498.647	14571.06
498.75	14571.06
498.853	14571.06
498.956	14571.06
499.059	14571.06
499.163	14571.06
499.266	14571.06
499.369	14571.06
499.471	14571.06
499.574	14571.06
499.677	14571.06
499.78	14571.06
499.883	14571.06
499.986	14571.06
500.089	14571.06
500.192	14571.06
500.295	14571.06
500.398	14571.06
500.501	14571.06
500.604	14571.06
500.707	14571.06
500.809	14571.06
500.912	14571.06
501.015	14571.06
501.118	14571.06
501.221	14571.06
501.324	14571.06
501.426	14571.06
501.529	14571.06
501.632	14571.06
501.735	14571.06
501.837	14571.06
501.94	14571.06
502.043	14571.06
502.146	14571.06
502.248	14571.06
502.351	14571.06
502.454	14571.06
502.557	14571.06
502.659	14571.06
502.762	14571.06
502.865	14571.06
502.967	14571.06
503.07	14571.06
503.173	14571.06
503.275	14571.06
503.378	14571.06
503.48	14571.06
503.583	14571.06
503.686	14571.06
503.788	14571.06
503.891	14571.06
503.993	14571.06
504.096	14571.06
504.198	14571.06
504.301	14571.06
504.403	14571.06
504.506	14571.06
504.608	14571.06
504.711	14571.06
504.813	14571.06
504.916	14571.06
505.018	14571.06
505.121	14571.06
505.223	14571.06
505.326	14571.06
505.428	14571.06
505.531	14571.06
505.633	14571.06
505.735	14571.06
505.838	14571.06
505.94	14571.06
506.042	14571.06
506.145	14571.06
506.247	14571.06
506.35	14571.06
506.452	14571.06
506.554	14571.06
506.656	14571.06
506.759	14571.06
506.861	14571.06
506.963	14571.06
507.066	14571.06
507.168	14571.06
507.27	14571.06
507.372	14571.06
507.475	14571.06
507.577	14571.06
507.679	14571.06
507.781	14571.06
507.883	14571.06
507.986	14571.06
508.088	14571.06
508.19	14571.06
508.292	14571.06
508.394	14571.06
508.496	14571.06
508.598	14571.06
508.701	14571.06
508.803	14571.06
508.905	14571.06
509.007	14571.06
509.109	14571.06
509.211	14571.06
509.313	14571.06
509.415	14571.06
509.517	14571.06
509.619	14571.06
509.721	14571.06
509.823	14571.06
509.925	14571.06
510.027	14571.06
510.129	14571.06
510.231	14571.06
510.333	14571.06
510.435	14571.06
510.537	14571.06
510.639	14571.06
510.741	14571.06
510.843	14571.06
510.945	14571.06
511.047	14571.06
511.148	14571.06
511.25	14571.06
511.352	14571.06
511.454	14571.06
511.556	14571.06
511.658	14571.06
511.76	14571.06
511.861	14571.06
511.963	14571.06
512.065	14571.06
512.167	14571.06
512.268	14571.06
512.37	14571.06
512.472	14571.06
512.574	14571.06
512.676	14571.06
512.777	14571.06
512.879	14571.06
512.981	14571.06
513.082	14571.06
513.184	14571.06
513.286	14571.06
513.387	14571.06
513.489	14571.06
513.591	14571.06
513.692	14571.06
513.794	14571.06
513.896	14571.06
513.997	14571.06
514.099	14571.06
514.2	14571.06
514.302	14571.06
514.404	14571.06
514.505	14571.06
514.607	14571.06
514.708	14571.06
514.81	14571.06
514.911	14571.06
515.013	14571.06
515.114	14571.06
515.216	14571.06
515.317	14571.06
515.419	14571.06
515.52	14571.06
515.622	14571.06
515.723	14571.06
515.825	14571.06
515.926	14571.06
516.027	14571.06
516.129	14571.06
516.23	14571.06
516.332	14571.06
516.433	14571.06
516.534	14571.06
516.636	14571.06
516.737	14571.06
516.838	14571.06
516.94	14571.06
517.041	14571.06
517.142	14571.06
517.244	14571.06
517.345	14571.06
517.446	14571.06
517.547	14571.06
517.649	14571.06
517.75	14571.06
517.851	14571.06
517.952	14571.06
518.054	14571.06
518.155	14571.06
518.256	14571.06
518.357	14571.06
518.458	14571.06
518.56	14571.06
518.661	14571.06
518.762	14571.06
518.863	14571.06
518.964	14571.06
519.065	14571.06
519.166	14571.06
519.268	14571.06
519.369	14571.06
519.47	14571.06
519.571	14571.06
519.672	14571.06
519.773	14571.06
519.874	14571.06
519.975	14571.06
520.076	14571.06
520.177	14571.06
520.278	14571.06
520.379	14571.06
520.48	14571.06
520.581	14571.06
520.682	14571.06
520.783	14571.06
520.884	14571.06
520.985	14571.06
521.086	14571.06
521.187	14571.06
521.288	14571.06
521.389	14571.06
521.489	14571.06
521.59	14571.06
521.691	14571.06
521.792	14571.06
521.893	14571.06
521.994	14571.06
522.095	14571.06
522.195	14571.06
522.296	14571.06
522.397	14571.06
522.498	14571.06
522.599	14571.06
522.699	14571.06
522.8	14571.06
522.901	14571.06
523.002	14571.06
523.102	14571.06
523.203	14571.06
523.304	14571.06
523.405	14571.06
523.505	14571.06
523.606	14571.06
523.707	14571.06
523.807	14571.06
523.908	14571.06
524.009	14571.06
524.109	14571.06
524.21	14571.06
524.31	14571.06
524.411	14571.06
524.512	14571.06
524.612	14571.06
524.713	14571.06
524.813	14571.06
524.914	14571.06
525.014	14571.06
525.115	14571.06
525.216	14571.06
525.316	14571.06
525.417	14571.06
525.517	14571.06
525.618	14571.06
525.718	14571.06
525.819	14571.06
525.919	14571.06
526.019	14571.06
526.12	14571.06
526.22	14571.06
526.321	14571.06
526.421	14571.06
526.522	14571.06
526.622	14571.06
526.722	14571.06
526.823	14571.06
526.923	14571.06
527.023	14571.06
527.124	14571.06
527.224	14571.06
527.324	14571.06
527.425	14571.06
527.525	14571.06
527.625	14571.06
527.726	14571.06
527.826	14571.06
527.926	14571.06
528.026	14571.06
528.127	14571.06
528.227	14571.06
528.327	14571.06
528.427	14571.06
528.528	14571.06
528.628	14571.06
528.728	14571.06
528.828	14571.06
528.928	14571.06
529.029	14571.06
529.129	14571.06
529.229	14571.06
529.329	14571.06
529.429	14571.06
529.529	14571.06
529.629	14571.06
529.729	14571.06
529.829	14571.06
529.93	14571.06
530.03	14571.06
530.13	14571.06
530.23	14571.06
530.33	14571.06
530.43	14571.06
530.53	14571.06
530.63	14571.06
530.73	14571.06
530.83	14571.06
530.93	14571.06
531.03	14571.06
531.13	14571.06
531.23	14571.06
