Data from 21g_HRC06701__119__363.txt Node

Date: Thu Apr 18 02:09:38 CDT 2024
User: Estudiantes 2
Spectrometer: HR+C0670
Trigger mode: 4
Integration Time (sec): 1.000000E0
Scans to average: 1
Electric dark correction enabled: true
Nonlinearity correction enabled: false
Boxcar width: 0
XAxis mode: Wavelengths
Number of Pixels in Spectrum: 2048
>>>>>Begin Spectral Data<<<<<
407.81	-137.56
407.921	-137.56
408.032	-137.56
408.143	-102.56
408.254	-151.56
408.365	29.44
408.476	279.44
408.587	-21.56
408.699	-1.56
408.81	-3.56
408.921	-60.56
409.032	-55.56
409.143	23.44
409.254	63.44
409.365	86.44
409.476	-37.56
409.587	32.44
409.698	57.44
409.809	78.44
409.92	-32.56
410.031	-32.56
410.142	35.44
410.253	33.44
410.364	48.44
410.475	628.44
410.585	3119.44
410.696	3407.44
410.807	3222.44
410.918	3289.44
411.029	3434.44
411.14	3273.44
411.251	3355.44
411.362	3414.44
411.472	3435.44
411.583	3383.44
411.694	3551.44
411.805	3486.44
411.916	3510.44
412.026	3538.44
412.137	3540.44
412.248	3481.44
412.359	3435.44
412.47	3378.44
412.58	3285.44
412.691	3416.44
412.802	3345.44
412.912	3420.44
413.023	3352.44
413.134	3284.44
413.245	3411.44
413.355	3392.44
413.466	3403.44
413.577	3383.44
413.687	3364.44
413.798	3259.44
413.909	3414.44
414.019	3370.44
414.13	3472.44
414.24	3409.44
414.351	3478.44
414.462	3603.44
414.572	3474.44
414.683	3459.44
414.793	3387.44
414.904	3757.44
415.014	3397.44
415.125	3394.44
415.235	3407.44
415.346	3629.44
415.456	3487.44
415.567	3405.44
415.677	3455.44
415.788	3438.44
415.898	3369.44
416.009	3364.44
416.119	3407.44
416.23	3382.44
416.34	3376.44
416.45	3443.44
416.561	4224.44
416.671	3569.44
416.782	3384.44
416.892	3443.44
417.002	3478.44
417.113	3627.44
417.223	3544.44
417.333	3433.44
417.444	3504.44
417.554	3635.44
417.664	3625.44
417.775	3571.44
417.885	3606.44
417.995	3596.44
418.106	3910.44
418.216	3761.44
418.326	3793.44
418.436	3894.44
418.547	3884.44
418.657	3829.44
418.767	3972.44
418.877	3857.44
418.987	3948.44
419.098	3945.44
419.208	4005.44
419.318	3982.44
419.428	4062.44
419.538	3855.44
419.648	4061.44
419.759	4028.44
419.869	3966.44
419.979	3976.44
420.089	3986.44
420.199	3917.44
420.309	3895.44
420.419	4007.44
420.529	3954.44
420.639	4327.44
420.749	4087.44
420.859	4060.44
420.969	4168.44
421.079	4353.44
421.189	4070.44
421.299	4088.44
421.409	4026.44
421.519	4110.44
421.629	4208.44
421.739	4179.44
421.849	4225.44
421.959	4155.44
422.069	4235.44
422.179	4314.44
422.289	4322.44
422.399	4365.44
422.509	4600.44
422.619	6874.44
422.729	4730.44
422.838	4468.44
422.948	4458.44
423.058	4522.44
423.168	4576.44
423.278	4665.44
423.388	4753.44
423.498	4832.44
423.607	4890.44
423.717	5084.44
423.827	5141.44
423.937	4951.44
424.046	5049.44
424.156	4999.44
424.266	4966.44
424.376	5260.44
424.485	5051.44
424.595	5000.44
424.705	5116.44
424.815	5031.44
424.924	5528.44
425.034	5070.44
425.144	5015.44
425.253	5021.44
425.363	5187.44
425.473	5137.44
425.582	4978.44
425.692	5115.44
425.801	5035.44
425.911	5367.44
426.021	5155.44
426.13	5320.44
426.24	5469.44
426.349	5352.44
426.459	5384.44
426.568	5260.44
426.678	5398.44
426.787	5420.44
426.897	5351.44
427.006	5399.44
427.116	5453.44
427.225	5426.44
427.335	5567.44
427.444	5536.44
427.554	5607.44
427.663	5493.44
427.773	5605.44
427.882	5727.44
427.992	5590.44
428.101	5723.44
428.21	5694.44
428.32	5794.44
428.429	5665.44
428.539	6035.44
428.648	5816.44
428.757	5729.44
428.867	5845.44
428.976	5990.44
429.085	5810.44
429.195	5850.44
429.304	6075.44
429.413	5932.44
429.523	6026.44
429.632	6054.44
429.741	6011.44
429.85	5955.44
429.96	6209.44
430.069	6168.44
430.178	6208.44
430.287	6506.44
430.397	6376.44
430.506	6193.44
430.615	6253.44
430.724	6344.44
430.833	6327.44
430.943	6414.44
431.052	6492.44
431.161	6439.44
431.27	6631.44
431.379	6628.44
431.488	7002.44
431.597	6881.44
431.706	7074.44
431.816	7011.44
431.925	6842.44
432.034	6827.44
432.143	6977.44
432.252	6738.44
432.361	6906.44
432.47	6834.44
432.579	6808.44
432.688	6879.44
432.797	6890.44
432.906	6714.44
433.015	6919.44
433.124	7319.44
433.233	7039.44
433.342	6949.44
433.451	7030.44
433.56	7112.44
433.669	6984.44
433.778	6955.44
433.886	7178.44
433.995	7042.44
434.104	7432.44
434.213	7359.44
434.322	7522.44
434.431	7756.44
434.54	7880.44
434.649	8098.44
434.757	7934.44
434.866	7792.44
434.975	7802.44
435.084	7539.44
435.193	7461.44
435.301	7612.44
435.41	7509.44
435.519	7504.44
435.628	6905.44
435.737	6816.44
435.845	6602.44
435.954	6620.44
436.063	6636.44
436.171	6670.44
436.28	6572.44
436.389	6919.44
436.498	6522.44
436.606	6691.44
436.715	6767.44
436.823	6386.44
436.932	6299.44
437.041	6400.44
437.149	6259.44
437.258	6118.44
437.367	6041.44
437.475	6041.44
437.584	6299.44
437.692	6054.44
437.801	7813.44
437.91	6126.44
438.018	5979.44
438.127	6063.44
438.235	6232.44
438.344	6239.44
438.452	6022.44
438.561	5910.44
438.669	5934.44
438.778	5808.44
438.886	5967.44
438.995	5813.44
439.103	6018.44
439.212	5965.44
439.32	6036.44
439.428	5875.44
439.537	5944.44
439.645	6172.44
439.754	6067.44
439.862	6005.44
439.97	6067.44
440.079	6093.44
440.187	6088.44
440.295	6295.44
440.404	6142.44
440.512	6106.44
440.62	6370.44
440.729	6372.44
440.837	6464.44
440.945	7390.44
441.054	6794.44
441.162	6768.44
441.27	7006.44
441.378	7050.44
441.487	6990.44
441.595	7453.44
441.703	7127.44
441.811	6788.44
441.92	6724.44
442.028	6676.44
442.136	6704.44
442.244	6605.44
442.352	6688.44
442.461	6392.44
442.569	6467.44
442.677	6519.44
442.785	6596.44
442.893	6542.44
443.001	6568.44
443.109	6521.44
443.217	6657.44
443.325	6490.44
443.434	7327.44
443.542	7103.44
443.65	6885.44
443.758	7076.44
443.866	6866.44
443.974	7286.44
444.082	7403.44
444.19	7482.44
444.298	7597.44
444.406	7920.44
444.514	8097.44
444.622	8036.44
444.73	8109.44
444.838	7896.44
444.946	7864.44
445.054	7461.44
445.161	7423.44
445.269	6928.44
445.377	7042.44
445.485	6990.44
445.593	6873.44
445.701	6857.44
445.809	6658.44
445.917	6811.44
446.025	6649.44
446.132	6734.44
446.24	6847.44
446.348	6786.44
446.456	6471.44
446.564	6621.44
446.671	6595.44
446.779	6556.44
446.887	6626.44
446.995	6501.44
447.102	6625.44
447.21	6534.44
447.318	6420.44
447.426	6311.44
447.533	6731.44
447.641	7750.44
447.749	6312.44
447.856	6320.44
447.964	6403.44
448.072	6451.44
448.179	6186.44
448.287	6479.44
448.395	6454.44
448.502	6395.44
448.61	6457.44
448.718	6324.44
448.825	6403.44
448.933	6428.44
449.04	6446.44
449.148	6496.44
449.256	6574.44
449.363	6683.44
449.471	6682.44
449.578	6697.44
449.686	6679.44
449.793	6884.44
449.901	6769.44
450.008	6825.44
450.116	6952.44
450.223	6986.44
450.331	7061.44
450.438	7235.44
450.546	7177.44
450.653	7337.44
450.76	7466.44
450.868	7308.44
450.975	7569.44
451.083	7465.44
451.19	7510.44
451.297	7344.44
451.405	7499.44
451.512	7445.44
451.619	7677.44
451.727	7658.44
451.834	7421.44
451.941	7441.44
452.049	7611.44
452.156	7651.44
452.263	7759.44
452.371	7658.44
452.478	7756.44
452.585	7867.44
452.692	7660.44
452.8	7829.44
452.907	8100.44
453.014	7824.44
453.121	7956.44
453.229	7963.44
453.336	8069.44
453.443	8089.44
453.55	8096.44
453.657	7992.44
453.765	8217.44
453.872	8154.44
453.979	8116.44
454.086	8167.44
454.193	8259.44
454.3	8190.44
454.407	8365.44
454.514	8443.44
454.621	8313.44
454.729	8340.44
454.836	8501.44
454.943	8509.44
455.05	8460.44
455.157	8426.44
455.264	8441.44
455.371	8621.44
455.478	8596.44
455.585	9994.44
455.692	8758.44
455.799	8828.44
455.906	8626.44
456.013	8704.44
456.12	8635.44
456.227	8752.44
456.334	9007.44
456.44	9122.44
456.547	9076.44
456.654	8947.44
456.761	9128.44
456.868	9179.44
456.975	9163.44
457.082	9053.44
457.189	9095.44
457.296	9246.44
457.402	9255.44
457.509	9137.44
457.616	9508.44
457.723	9799.44
457.83	9560.44
457.936	9681.44
458.043	10329.44
458.15	9940.44
458.257	9982.44
458.363	10210.44
458.47	10391.44
458.577	10555.44
458.684	10664.44
458.79	11228.44
458.897	11206.44
459.004	11545.44
459.11	11383.44
459.217	11548.44
459.324	11799.44
459.43	11978.44
459.537	12048.44
459.644	12193.44
459.75	12347.44
459.857	13057.44
459.964	12697.44
460.07	12882.44
460.177	13271.44
460.283	13155.44
460.39	13486.44
460.496	13075.44
460.603	13144.44
460.71	13303.44
460.816	13231.44
460.923	13018.44
461.029	13103.44
461.136	13107.44
461.242	13013.44
461.349	13184.44
461.455	13364.44
461.562	13510.44
461.668	13533.44
461.774	13468.44
461.881	13688.44
461.987	13824.44
462.094	14200.44
462.2	14456.44
462.307	14370.44
462.413	14292.44
462.519	14565.44
462.626	14565.44
462.732	14565.44
462.838	14565.44
462.945	14565.44
463.051	14565.44
463.157	14565.44
463.264	14565.44
463.37	14565.44
463.476	14565.44
463.583	14565.44
463.689	14565.44
463.795	14565.44
463.901	14565.44
464.008	14565.44
464.114	14565.44
464.22	14565.44
464.326	14565.44
464.433	14214.44
464.539	14343.44
464.645	13895.44
464.751	13848.44
464.857	13369.44
464.963	12793.44
465.07	12488.44
465.176	12040.44
465.282	11733.44
465.388	11493.44
465.494	11116.44
465.6	10852.44
465.706	10648.44
465.812	10430.44
465.918	10467.44
466.024	10177.44
466.131	10001.44
466.237	10020.44
466.343	9806.44
466.449	9578.44
466.555	9391.44
466.661	9362.44
466.767	9235.44
466.873	9152.44
466.979	9318.44
467.085	9143.44
467.191	9201.44
467.296	9177.44
467.402	9180.44
467.508	9060.44
467.614	9100.44
467.72	8808.44
467.826	8472.44
467.932	8550.44
468.038	8330.44
468.144	8395.44
468.25	8328.44
468.355	8277.44
468.461	8419.44
468.567	8355.44
468.673	8342.44
468.779	8298.44
468.885	8197.44
468.99	8324.44
469.096	8291.44
469.202	8374.44
469.308	8399.44
469.413	8616.44
469.519	8519.44
469.625	8443.44
469.731	8539.44
469.836	8700.44
469.942	8830.44
470.048	8676.44
470.153	8777.44
470.259	8694.44
470.365	8765.44
470.47	8817.44
470.576	8465.44
470.682	8519.44
470.787	8468.44
470.893	8226.44
470.999	8273.44
471.104	8101.44
471.21	7786.44
471.315	7859.44
471.421	7735.44
471.527	7916.44
471.632	7669.44
471.738	7523.44
471.843	7460.44
471.949	7566.44
472.054	7343.44
472.16	7352.44
472.265	7265.44
472.371	7180.44
472.476	7231.44
472.582	7355.44
472.687	7019.44
472.793	7049.44
472.898	7072.44
473.003	6989.44
473.109	6907.44
473.214	6961.44
473.32	6933.44
473.425	6878.44
473.53	6896.44
473.636	6880.44
473.741	6852.44
473.847	6781.44
473.952	6920.44
474.057	6779.44
474.163	6852.44
474.268	6768.44
474.373	6916.44
474.478	6740.44
474.584	6809.44
474.689	6833.44
474.794	6727.44
474.9	7124.44
475.005	6767.44
475.11	6989.44
475.215	6762.44
475.321	6859.44
475.426	6945.44
475.531	6904.44
475.636	6859.44
475.741	6805.44
475.846	7073.44
475.952	7259.44
476.057	6892.44
476.162	7031.44
476.267	7045.44
476.372	7380.44
476.477	7025.44
476.582	7155.44
476.687	7093.44
476.793	7196.44
476.898	7297.44
477.003	7388.44
477.108	7234.44
477.213	7310.44
477.318	7517.44
477.423	7712.44
477.528	7748.44
477.633	7905.44
477.738	7881.44
477.843	7775.44
477.948	8056.44
478.053	7919.44
478.158	8120.44
478.263	8125.44
478.368	8172.44
478.473	8356.44
478.578	8368.44
478.682	8429.44
478.787	8526.44
478.892	8541.44
478.997	8542.44
479.102	8513.44
479.207	8443.44
479.312	8593.44
479.417	8555.44
479.521	8544.44
479.626	8878.44
479.731	8779.44
479.836	8829.44
479.941	9175.44
480.045	9371.44
480.15	9368.44
480.255	9394.44
480.36	9378.44
480.465	9419.44
480.569	9299.44
480.674	9088.44
480.779	8906.44
480.883	8890.44
480.988	8966.44
481.093	8868.44
481.197	8708.44
481.302	8830.44
481.407	8721.44
481.511	10118.44
481.616	8804.44
481.721	8692.44
481.825	8857.44
481.93	8701.44
482.035	8662.44
482.139	8790.44
482.244	8764.44
482.348	8812.44
482.453	8891.44
482.557	9053.44
482.662	8881.44
482.767	8940.44
482.871	9018.44
482.976	9159.44
483.08	9163.44
483.185	9286.44
483.289	9278.44
483.394	9231.44
483.498	9386.44
483.603	9431.44
483.707	9506.44
483.811	9524.44
483.916	9707.44
484.02	9528.44
484.125	9910.44
484.229	9907.44
484.333	10063.44
484.438	9827.44
484.542	10072.44
484.647	9994.44
484.751	10292.44
484.855	10313.44
484.96	10402.44
485.064	10544.44
485.168	10583.44
485.273	10416.44
485.377	10708.44
485.481	10990.44
485.585	10578.44
485.69	10682.44
485.794	10798.44
485.898	10816.44
486.002	10816.44
486.107	10896.44
486.211	10802.44
486.315	10924.44
486.419	11047.44
486.524	10849.44
486.628	11049.44
486.732	11041.44
486.836	10918.44
486.94	11056.44
487.044	11019.44
487.148	10940.44
487.253	10922.44
487.357	11134.44
487.461	11195.44
487.565	11049.44
487.669	10933.44
487.773	10857.44
487.877	10993.44
487.981	11040.44
488.085	10941.44
488.189	11052.44
488.293	11197.44
488.397	11519.44
488.501	11067.44
488.605	11077.44
488.709	11004.44
488.813	11067.44
488.917	11106.44
489.021	11121.44
489.125	11400.44
489.229	11120.44
489.333	11347.44
489.437	11382.44
489.541	11413.44
489.645	11304.44
489.749	11360.44
489.853	11357.44
489.956	11094.44
490.06	11306.44
490.164	11267.44
490.268	11252.44
490.372	11394.44
490.476	11288.44
490.579	11356.44
490.683	12078.44
490.787	11389.44
490.891	11307.44
490.995	11235.44
491.098	11244.44
491.202	11312.44
491.306	11351.44
491.41	11293.44
491.513	11204.44
491.617	11403.44
491.721	11485.44
491.824	11383.44
491.928	11271.44
492.032	11389.44
492.136	11262.44
492.239	11444.44
492.343	11391.44
492.446	11821.44
492.55	11527.44
492.654	11281.44
492.757	11290.44
492.861	11326.44
492.965	11501.44
493.068	11491.44
493.172	11505.44
493.275	11510.44
493.379	11412.44
493.482	11581.44
493.586	11674.44
493.689	11607.44
493.793	11496.44
493.896	11735.44
494	11732.44
494.103	11713.44
494.207	11747.44
494.31	11939.44
494.414	11581.44
494.517	11527.44
494.621	11408.44
494.724	11408.44
494.828	11408.44
494.931	11300.44
495.034	11208.44
495.138	11495.44
495.241	11184.44
495.345	12182.44
495.448	11457.44
495.551	11241.44
495.655	11283.44
495.758	11276.44
495.861	11235.44
495.965	11300.44
496.068	11412.44
496.171	11449.44
496.274	11484.44
496.378	11411.44
496.481	11598.44
496.584	11460.44
496.687	11601.44
496.791	11713.44
496.894	11759.44
496.997	11760.44
497.1	11835.44
497.204	11962.44
497.307	11986.44
497.41	12344.44
497.513	12678.44
497.616	12556.44
497.719	12592.44
497.823	12786.44
497.926	12897.44
498.029	13258.44
498.132	13371.44
498.235	13833.44
498.338	14095.44
498.441	14379.44
498.544	14565.44
498.647	14565.44
498.75	14565.44
498.853	14565.44
498.956	14565.44
499.059	14565.44
499.163	14565.44
499.266	14565.44
499.369	14565.44
499.471	14565.44
499.574	14565.44
499.677	14565.44
499.78	14565.44
499.883	14565.44
499.986	14565.44
500.089	14565.44
500.192	14565.44
500.295	14565.44
500.398	14565.44
500.501	14565.44
500.604	14565.44
500.707	14565.44
500.809	14565.44
500.912	14565.44
501.015	14565.44
501.118	14565.44
501.221	14565.44
501.324	14565.44
501.426	14565.44
501.529	14565.44
501.632	14565.44
501.735	14565.44
501.837	14565.44
501.94	14529.44
502.043	14125.44
502.146	13753.44
502.248	13379.44
502.351	13224.44
502.454	12889.44
502.557	12739.44
502.659	12362.44
502.762	11876.44
502.865	11648.44
502.967	11593.44
503.07	11115.44
503.173	11175.44
503.275	10939.44
503.378	10847.44
503.48	10761.44
503.583	10707.44
503.686	10587.44
503.788	10752.44
503.891	10449.44
503.993	10812.44
504.096	10554.44
504.198	10761.44
504.301	10836.44
504.403	10639.44
504.506	10536.44
504.608	10271.44
504.711	10075.44
504.813	9764.44
504.916	9448.44
505.018	9418.44
505.121	9191.44
505.223	8990.44
505.326	8906.44
505.428	8909.44
505.531	8589.44
505.633	8559.44
505.735	8457.44
505.838	8384.44
505.94	8363.44
506.042	8158.44
506.145	8008.44
506.247	8131.44
506.35	8047.44
506.452	7969.44
506.554	7963.44
506.656	7975.44
506.759	7870.44
506.861	8044.44
506.963	7763.44
507.066	7700.44
507.168	7911.44
507.27	7731.44
507.372	7617.44
507.475	7511.44
507.577	7558.44
507.679	7584.44
507.781	7399.44
507.883	7488.44
507.986	7435.44
508.088	7256.44
508.19	7352.44
508.292	7459.44
508.394	7265.44
508.496	7148.44
508.598	7277.44
508.701	7303.44
508.803	7232.44
508.905	7191.44
509.007	7238.44
509.109	7220.44
509.211	7267.44
509.313	7202.44
509.415	7112.44
509.517	7093.44
509.619	6988.44
509.721	7034.44
509.823	7084.44
509.925	7295.44
510.027	7029.44
510.129	7015.44
510.231	7105.44
510.333	7050.44
510.435	6970.44
510.537	7142.44
510.639	7024.44
510.741	6929.44
510.843	7000.44
510.945	7035.44
511.047	7115.44
511.148	7021.44
511.25	7082.44
511.352	6971.44
511.454	6956.44
511.556	7092.44
511.658	7071.44
511.76	7063.44
511.861	7253.44
511.963	7034.44
512.065	6941.44
512.167	6969.44
512.268	7235.44
512.37	7141.44
512.472	7077.44
512.574	7201.44
512.676	7197.44
512.777	7022.44
512.879	7194.44
512.981	7231.44
513.082	7059.44
513.184	7131.44
513.286	7639.44
513.387	7224.44
513.489	7319.44
513.591	7306.44
513.692	7284.44
513.794	7389.44
513.896	7189.44
513.997	7366.44
514.099	7234.44
514.2	7416.44
514.302	7420.44
514.404	7371.44
514.505	7339.44
514.607	7608.44
514.708	7432.44
514.81	7592.44
514.911	7697.44
515.013	7647.44
515.114	7775.44
515.216	7830.44
515.317	7875.44
515.419	7767.44
515.52	8092.44
515.622	8079.44
515.723	8114.44
515.825	8547.44
515.926	8322.44
516.027	8309.44
516.129	8531.44
516.23	8651.44
516.332	8739.44
516.433	9118.44
516.534	9235.44
516.636	9252.44
516.737	9460.44
516.838	10732.44
516.94	10051.44
517.041	10091.44
517.142	10455.44
517.244	10634.44
517.345	10660.44
517.446	10776.44
517.547	11075.44
517.649	10749.44
517.75	10792.44
517.851	10860.44
517.952	10971.44
518.054	10653.44
518.155	10704.44
518.256	10177.44
518.357	10186.44
518.458	9801.44
518.56	9721.44
518.661	9656.44
518.762	9451.44
518.863	9497.44
518.964	9338.44
519.065	9105.44
519.166	9109.44
519.268	8829.44
519.369	8963.44
519.47	8664.44
519.571	8798.44
519.672	8507.44
519.773	8724.44
519.874	8763.44
519.975	8578.44
520.076	8407.44
520.177	8554.44
520.278	8529.44
520.379	8487.44
520.48	8305.44
520.581	8343.44
520.682	8126.44
520.783	8234.44
520.884	8339.44
520.985	8256.44
521.086	8280.44
521.187	8298.44
521.288	8198.44
521.389	8105.44
521.489	8167.44
521.59	8122.44
521.691	8122.44
521.792	8238.44
521.893	8256.44
521.994	8187.44
522.095	8309.44
522.195	8289.44
522.296	8276.44
522.397	8337.44
522.498	8227.44
522.599	7991.44
522.699	8117.44
522.8	8128.44
522.901	8236.44
523.002	7997.44
523.102	8296.44
523.203	8060.44
523.304	8226.44
523.405	8149.44
523.505	8243.44
523.606	8190.44
523.707	8162.44
523.807	8096.44
523.908	8107.44
524.009	8200.44
524.109	8155.44
524.21	8094.44
524.31	8207.44
524.411	8375.44
524.512	8288.44
524.612	8160.44
524.713	8348.44
524.813	8111.44
524.914	8507.44
525.014	14043.44
525.115	8469.44
525.216	8175.44
525.316	8215.44
525.417	8352.44
525.517	8175.44
525.618	8203.44
525.718	8254.44
525.819	8116.44
525.919	8232.44
526.019	8235.44
526.12	8347.44
526.22	8276.44
526.321	8205.44
526.421	8177.44
526.522	8175.44
526.622	8171.44
526.722	8227.44
526.823	8156.44
526.923	8179.44
527.023	8388.44
527.124	8236.44
527.224	8349.44
527.324	8140.44
527.425	8168.44
527.525	8215.44
527.625	8171.44
527.726	8212.44
527.826	8392.44
527.926	8276.44
528.026	8344.44
528.127	8117.44
528.227	8173.44
528.327	8190.44
528.427	8130.44
528.528	8240.44
528.628	8276.44
528.728	8216.44
528.828	8219.44
528.928	8306.44
529.029	8192.44
529.129	8095.44
529.229	8168.44
529.329	8158.44
529.429	8289.44
529.529	8308.44
529.629	8227.44
529.729	8165.44
529.829	8198.44
529.93	8096.44
530.03	8314.44
530.13	8003.44
530.23	8060.44
530.33	8264.44
530.43	8113.44
530.53	8219.44
530.63	8104.44
530.73	8118.44
530.83	7933.44
530.93	7972.44
531.03	8073.44
531.13	8055.44
531.23	8100.44
531.33	8143.44
531.429	8088.44
531.529	8168.44
531.629	7980.44
531.729	7955.44
531.829	7884.44
531.929	8084.44
532.029	7870.44
532.129	7843.44
532.229	8107.44
532.328	7816.44
532.428	7909.44
532.528	7881.44
532.628	7927.44
532.728	7863.44
532.827	7659.44
532.927	7916.44
533.027	7751.44
533.127	7919.44
533.227	7768.44
533.326	7711.44
533.426	7547.44
533.526	7748.44
533.625	7710.44
533.725	7832.44
533.825	7779.44
533.924	7623.44
534.024	7391.44
534.124	7533.44
534.223	7594.44
534.323	7890.44
534.423	7559.44
534.522	7408.44
534.622	7388.44
534.722	7411.44
534.821	7434.44
534.921	7312.44
535.02	7200.44
535.12	7268.44
535.219	7358.44
535.319	7273.44
535.419	7229.44
535.518	7225.44
535.618	7129.44
535.717	7145.44
535.817	6918.44
535.916	6792.44
536.016	6988.44
536.115	6754.44
