Data from 21g_HRC06701__79__323.txt Node

Date: Thu Apr 18 02:08:58 CDT 2024
User: Estudiantes 2
Spectrometer: HR+C0670
Trigger mode: 4
Integration Time (sec): 1.000000E0
Scans to average: 1
Electric dark correction enabled: true
Nonlinearity correction enabled: false
Boxcar width: 0
XAxis mode: Wavelengths
Number of Pixels in Spectrum: 2048
>>>>>Begin Spectral Data<<<<<
407.81	-161.12
407.921	-161.12
408.032	-161.12
408.143	-84.12
408.254	-139.12
408.365	25.88
408.476	242.88
408.587	-29.12
408.699	-20.12
408.81	-34.12
408.921	-33.12
409.032	-18.12
409.143	44.88
409.254	76.88
409.365	71.88
409.476	-33.12
409.587	37.88
409.698	51.88
409.809	78.88
409.92	-16.12
410.031	-56.12
410.142	48.88
410.253	18.88
410.364	85.88
410.475	1188.88
410.585	5950.88
410.696	6404.88
410.807	6167.88
410.918	6326.88
411.029	6496.88
411.14	6442.88
411.251	6397.88
411.362	6478.88
411.472	6623.88
411.583	6461.88
411.694	6730.88
411.805	6655.88
411.916	6658.88
412.026	6729.88
412.137	6688.88
412.248	6531.88
412.359	6604.88
412.47	6261.88
412.58	6278.88
412.691	6501.88
412.802	6350.88
412.912	6467.88
413.023	6432.88
413.134	6449.88
413.245	6503.88
413.355	6390.88
413.466	6327.88
413.577	6346.88
413.687	6462.88
413.798	6168.88
413.909	6553.88
414.019	6559.88
414.13	6581.88
414.24	6523.88
414.351	6586.88
414.462	6940.88
414.572	6598.88
414.683	6678.88
414.793	6603.88
414.904	6885.88
415.014	6620.88
415.125	6449.88
415.235	6573.88
415.346	6717.88
415.456	6715.88
415.567	6544.88
415.677	6520.88
415.788	6524.88
415.898	6452.88
416.009	6464.88
416.119	6672.88
416.23	6442.88
416.34	6482.88
416.45	6729.88
416.561	7435.88
416.671	6628.88
416.782	6628.88
416.892	6671.88
417.002	6637.88
417.113	6891.88
417.223	6732.88
417.333	6754.88
417.444	6718.88
417.554	6983.88
417.664	6983.88
417.775	6842.88
417.885	7095.88
417.995	6932.88
418.106	7464.88
418.216	7187.88
418.326	7441.88
418.436	7591.88
418.547	7674.88
418.657	7588.88
418.767	7642.88
418.877	7667.88
418.987	7734.88
419.098	7641.88
419.208	7804.88
419.318	7893.88
419.428	7798.88
419.538	7598.88
419.648	7804.88
419.759	7697.88
419.869	7567.88
419.979	7673.88
420.089	7644.88
420.199	7628.88
420.309	7799.88
420.419	7771.88
420.529	7696.88
420.639	8168.88
420.749	7895.88
420.859	7911.88
420.969	8038.88
421.079	8159.88
421.189	7864.88
421.299	7820.88
421.409	7947.88
421.519	8182.88
421.629	8111.88
421.739	8043.88
421.849	8170.88
421.959	8318.88
422.069	8239.88
422.179	8382.88
422.289	8531.88
422.399	8598.88
422.509	8785.88
422.619	11131.88
422.729	8974.88
422.838	8978.88
422.948	9109.88
423.058	9129.88
423.168	9168.88
423.278	9262.88
423.388	9410.88
423.498	9603.88
423.607	9563.88
423.717	9849.88
423.827	9893.88
423.937	9851.88
424.046	9797.88
424.156	9966.88
424.266	9812.88
424.376	10033.88
424.485	9926.88
424.595	9910.88
424.705	9932.88
424.815	9989.88
424.924	10468.88
425.034	9965.88
425.144	9893.88
425.253	9853.88
425.363	10163.88
425.473	9999.88
425.582	9800.88
425.692	9980.88
425.801	9936.88
425.911	10180.88
426.021	10065.88
426.13	10382.88
426.24	10358.88
426.349	10162.88
426.459	10398.88
426.568	10243.88
426.678	10300.88
426.787	10416.88
426.897	10192.88
427.006	10461.88
427.116	10602.88
427.225	10463.88
427.335	10708.88
427.444	10593.88
427.554	10621.88
427.663	10769.88
427.773	10785.88
427.882	10965.88
427.992	10708.88
428.101	10963.88
428.21	10908.88
428.32	11035.88
428.429	11035.88
428.539	11313.88
428.648	11154.88
428.757	11089.88
428.867	11217.88
428.976	11566.88
429.085	11347.88
429.195	11405.88
429.304	11394.88
429.413	11471.88
429.523	11570.88
429.632	11475.88
429.741	11597.88
429.85	11580.88
429.96	12016.88
430.069	11791.88
430.178	11806.88
430.287	12257.88
430.397	12029.88
430.506	11900.88
430.615	12152.88
430.724	12212.88
430.833	11998.88
430.943	12286.88
431.052	12432.88
431.161	12462.88
431.27	12618.88
431.379	12852.88
431.488	13439.88
431.597	13163.88
431.706	13425.88
431.816	13399.88
431.925	13193.88
432.034	13183.88
432.143	13100.88
432.252	13126.88
432.361	13207.88
432.47	13057.88
432.579	13114.88
432.688	13007.88
432.797	13226.88
432.906	12999.88
433.015	13218.88
433.124	13331.88
433.233	13353.88
433.342	13349.88
433.451	13434.88
433.56	13588.88
433.669	13595.88
433.778	13486.88
433.886	13822.88
433.995	13739.88
434.104	14178.88
434.213	14403.88
434.322	14534.88
434.431	14568.88
434.54	14568.88
434.649	14568.88
434.757	14568.88
434.866	14568.88
434.975	14568.88
435.084	14568.88
435.193	14526.88
435.301	14271.88
435.41	14072.88
435.519	13966.88
435.628	13083.88
435.737	13196.88
435.845	12883.88
435.954	12738.88
436.063	12876.88
436.171	12921.88
436.28	12753.88
436.389	13166.88
436.498	12695.88
436.606	12818.88
436.715	12875.88
436.823	12411.88
436.932	12134.88
437.041	12212.88
437.149	12215.88
437.258	11900.88
437.367	11594.88
437.475	11779.88
437.584	12085.88
437.692	11697.88
437.801	13542.88
437.91	11722.88
438.018	11646.88
438.127	11663.88
438.235	11769.88
438.344	11668.88
438.452	11558.88
438.561	11460.88
438.669	11579.88
438.778	11408.88
438.886	11478.88
438.995	11412.88
439.103	11617.88
439.212	11738.88
439.32	11763.88
439.428	11603.88
439.537	11782.88
439.645	11901.88
439.754	12002.88
439.862	11712.88
439.97	11947.88
440.079	12118.88
440.187	11810.88
440.295	12147.88
440.404	12130.88
440.512	12241.88
440.62	12394.88
440.729	12384.88
440.837	12477.88
440.945	13540.88
441.054	13226.88
441.162	13164.88
441.27	13638.88
441.378	13922.88
441.487	13843.88
441.595	14518.88
441.703	13969.88
441.811	13518.88
441.92	13480.88
442.028	13090.88
442.136	13277.88
442.244	13136.88
442.352	13186.88
442.461	12994.88
442.569	13018.88
442.677	13024.88
442.785	13097.88
442.893	12911.88
443.001	12884.88
443.109	12952.88
443.217	13142.88
443.325	13359.88
443.434	14022.88
443.542	13760.88
443.65	13482.88
443.758	13931.88
443.866	13932.88
443.974	14537.88
444.082	14342.88
444.19	14568.88
444.298	14568.88
444.406	14568.88
444.514	14568.88
444.622	14568.88
444.73	14568.88
444.838	14568.88
444.946	14568.88
445.054	14568.88
445.161	14568.88
445.269	14126.88
445.377	13807.88
445.485	13832.88
445.593	13603.88
445.701	13472.88
445.809	13260.88
445.917	13094.88
446.025	13051.88
446.132	13058.88
446.24	13226.88
446.348	12903.88
446.456	12875.88
446.564	12976.88
446.671	12885.88
446.779	12620.88
446.887	12771.88
446.995	12513.88
447.102	12699.88
447.21	12510.88
447.318	12538.88
447.426	12321.88
447.533	12698.88
447.641	13825.88
447.749	12412.88
447.856	12366.88
447.964	12439.88
448.072	12515.88
448.179	12259.88
448.287	12462.88
448.395	12560.88
448.502	12164.88
448.61	12414.88
448.718	12539.88
448.825	12527.88
448.933	12444.88
449.04	12575.88
449.148	12707.88
449.256	12572.88
449.363	12599.88
449.471	12746.88
449.578	13099.88
449.686	12923.88
449.793	13265.88
449.901	13063.88
450.008	13073.88
450.116	13366.88
450.223	13399.88
450.331	13632.88
450.438	13854.88
450.546	14033.88
450.653	14132.88
450.76	14324.88
450.868	14321.88
450.975	14467.88
451.083	14359.88
451.19	14493.88
451.297	14260.88
451.405	14357.88
451.512	14558.88
451.619	14568.88
451.727	14568.88
451.834	14566.88
451.941	14568.88
452.049	14568.88
452.156	14568.88
452.263	14568.88
452.371	14568.88
452.478	14568.88
452.585	14568.88
452.692	14568.88
452.8	14568.88
452.907	14568.88
453.014	14568.88
453.121	14568.88
453.229	14568.88
453.336	14568.88
453.443	14568.88
453.55	14568.88
453.657	14568.88
453.765	14568.88
453.872	14568.88
453.979	14568.88
454.086	14568.88
454.193	14568.88
454.3	14568.88
454.407	14568.88
454.514	14568.88
454.621	14568.88
454.729	14568.88
454.836	14568.88
454.943	14568.88
455.05	14568.88
455.157	14568.88
455.264	14568.88
455.371	14568.88
455.478	14568.88
455.585	14568.88
455.692	14568.88
455.799	14568.88
455.906	14568.88
456.013	14568.88
456.12	14568.88
456.227	14568.88
456.334	14568.88
456.44	14568.88
456.547	14568.88
456.654	14568.88
456.761	14568.88
456.868	14568.88
456.975	14568.88
457.082	14568.88
457.189	14568.88
457.296	14568.88
457.402	14568.88
457.509	14568.88
457.616	14568.88
457.723	14568.88
457.83	14568.88
457.936	14568.88
458.043	14568.88
458.15	14568.88
458.257	14568.88
458.363	14568.88
458.47	14568.88
458.577	14568.88
458.684	14568.88
458.79	14568.88
458.897	14568.88
459.004	14568.88
459.11	14568.88
459.217	14568.88
459.324	14568.88
459.43	14568.88
459.537	14568.88
459.644	14568.88
459.75	14568.88
459.857	14568.88
459.964	14568.88
460.07	14568.88
460.177	14568.88
460.283	14568.88
460.39	14568.88
460.496	14568.88
460.603	14568.88
460.71	14568.88
460.816	14568.88
460.923	14568.88
461.029	14568.88
461.136	14568.88
461.242	14568.88
461.349	14568.88
461.455	14568.88
461.562	14568.88
461.668	14568.88
461.774	14568.88
461.881	14568.88
461.987	14568.88
462.094	14568.88
462.2	14568.88
462.307	14568.88
462.413	14568.88
462.519	14568.88
462.626	14568.88
462.732	14568.88
462.838	14568.88
462.945	14568.88
463.051	14568.88
463.157	14568.88
463.264	14568.88
463.37	14568.88
463.476	14568.88
463.583	14568.88
463.689	14568.88
463.795	14568.88
463.901	14568.88
464.008	14568.88
464.114	14568.88
464.22	14568.88
464.326	14568.88
464.433	14568.88
464.539	14568.88
464.645	14568.88
464.751	14568.88
464.857	14568.88
464.963	14568.88
465.07	14568.88
465.176	14568.88
465.282	14568.88
465.388	14568.88
465.494	14568.88
465.6	14568.88
465.706	14568.88
465.812	14568.88
465.918	14568.88
466.024	14568.88
466.131	14568.88
466.237	14568.88
466.343	14568.88
466.449	14568.88
466.555	14568.88
466.661	14568.88
466.767	14568.88
466.873	14568.88
466.979	14568.88
467.085	14568.88
467.191	14568.88
467.296	14568.88
467.402	14568.88
467.508	14568.88
467.614	14568.88
467.72	14568.88
467.826	14568.88
467.932	14568.88
468.038	14568.88
468.144	14568.88
468.25	14568.88
468.355	14568.88
468.461	14568.88
468.567	14568.88
468.673	14568.88
468.779	14568.88
468.885	14568.88
468.99	14568.88
469.096	14568.88
469.202	14568.88
469.308	14568.88
469.413	14568.88
469.519	14568.88
469.625	14568.88
469.731	14568.88
469.836	14568.88
469.942	14568.88
470.048	14568.88
470.153	14568.88
470.259	14568.88
470.365	14568.88
470.47	14568.88
470.576	14568.88
470.682	14568.88
470.787	14568.88
470.893	14568.88
470.999	14568.88
471.104	14568.88
471.21	14568.88
471.315	14568.88
471.421	14568.88
471.527	14568.88
471.632	14568.88
471.738	14568.88
471.843	14568.88
471.949	14538.88
472.054	14568.88
472.16	14472.88
472.265	14381.88
472.371	14217.88
472.476	14032.88
472.582	14116.88
472.687	13814.88
472.793	13855.88
472.898	13746.88
473.003	13847.88
473.109	13541.88
473.214	13571.88
473.32	13740.88
473.425	13478.88
473.53	13540.88
473.636	13526.88
473.741	13382.88
473.847	13352.88
473.952	13411.88
474.057	13352.88
474.163	13336.88
474.268	13485.88
474.373	13461.88
474.478	13309.88
474.584	13280.88
474.689	13420.88
474.794	13467.88
474.9	13728.88
475.005	13417.88
475.11	13805.88
475.215	13491.88
475.321	13651.88
475.426	13644.88
475.531	13601.88
475.636	13599.88
475.741	13418.88
475.846	14068.88
475.952	14103.88
476.057	13832.88
476.162	13933.88
476.267	13883.88
476.372	14310.88
476.477	13992.88
476.582	14200.88
476.687	14146.88
476.793	14165.88
476.898	14269.88
477.003	14431.88
477.108	14568.88
477.213	14568.88
477.318	14568.88
477.423	14568.88
477.528	14568.88
477.633	14568.88
477.738	14568.88
477.843	14568.88
477.948	14568.88
478.053	14568.88
478.158	14568.88
478.263	14568.88
478.368	14568.88
478.473	14568.88
478.578	14568.88
478.682	14568.88
478.787	14568.88
478.892	14568.88
478.997	14568.88
479.102	14568.88
479.207	14568.88
479.312	14568.88
479.417	14568.88
479.521	14568.88
479.626	14568.88
479.731	14568.88
479.836	14568.88
479.941	14568.88
480.045	14568.88
480.15	14568.88
480.255	14568.88
480.36	14568.88
480.465	14568.88
480.569	14568.88
480.674	14568.88
480.779	14568.88
480.883	14568.88
480.988	14568.88
481.093	14568.88
481.197	14568.88
481.302	14568.88
481.407	14568.88
481.511	14568.88
481.616	14568.88
481.721	14568.88
481.825	14568.88
481.93	14568.88
482.035	14568.88
482.139	14568.88
482.244	14568.88
482.348	14568.88
482.453	14568.88
482.557	14568.88
482.662	14568.88
482.767	14568.88
482.871	14568.88
482.976	14568.88
483.08	14568.88
483.185	14568.88
483.289	14568.88
483.394	14568.88
483.498	14568.88
483.603	14568.88
483.707	14568.88
483.811	14568.88
483.916	14568.88
484.02	14568.88
484.125	14568.88
484.229	14568.88
484.333	14568.88
484.438	14568.88
484.542	14568.88
484.647	14568.88
484.751	14568.88
484.855	14568.88
484.96	14568.88
485.064	14568.88
485.168	14568.88
485.273	14568.88
485.377	14568.88
485.481	14568.88
485.585	14568.88
485.69	14568.88
485.794	14568.88
485.898	14568.88
486.002	14568.88
486.107	14568.88
486.211	14568.88
486.315	14568.88
486.419	14568.88
486.524	14568.88
486.628	14568.88
486.732	14568.88
486.836	14568.88
486.94	14568.88
487.044	14568.88
487.148	14568.88
487.253	14568.88
487.357	14568.88
487.461	14568.88
487.565	14568.88
487.669	14568.88
487.773	14568.88
487.877	14568.88
487.981	14568.88
488.085	14568.88
488.189	14568.88
488.293	14568.88
488.397	14568.88
488.501	14568.88
488.605	14568.88
488.709	14568.88
488.813	14568.88
488.917	14568.88
489.021	14568.88
489.125	14568.88
489.229	14568.88
489.333	14568.88
489.437	14568.88
489.541	14568.88
489.645	14568.88
489.749	14568.88
489.853	14568.88
489.956	14568.88
490.06	14568.88
490.164	14568.88
490.268	14568.88
490.372	14568.88
490.476	14568.88
490.579	14568.88
490.683	14568.88
490.787	14568.88
490.891	14568.88
490.995	14568.88
491.098	14568.88
491.202	14568.88
491.306	14568.88
491.41	14568.88
491.513	14568.88
491.617	14568.88
491.721	14568.88
491.824	14568.88
491.928	14568.88
492.032	14568.88
492.136	14568.88
492.239	14568.88
492.343	14568.88
492.446	14568.88
492.55	14568.88
492.654	14568.88
492.757	14568.88
492.861	14568.88
492.965	14568.88
493.068	14568.88
493.172	14568.88
493.275	14568.88
493.379	14568.88
493.482	14568.88
493.586	14568.88
493.689	14568.88
493.793	14568.88
493.896	14568.88
494	14568.88
494.103	14568.88
494.207	14568.88
494.31	14568.88
494.414	14568.88
494.517	14568.88
494.621	14568.88
494.724	14568.88
494.828	14568.88
494.931	14568.88
495.034	14568.88
495.138	14568.88
495.241	14568.88
495.345	14568.88
495.448	14568.88
495.551	14568.88
495.655	14568.88
495.758	14568.88
495.861	14568.88
495.965	14568.88
496.068	14568.88
496.171	14568.88
496.274	14568.88
496.378	14568.88
496.481	14568.88
496.584	14568.88
496.687	14568.88
496.791	14568.88
496.894	14568.88
496.997	14568.88
497.1	14568.88
497.204	14568.88
497.307	14568.88
497.41	14568.88
497.513	14568.88
497.616	14568.88
497.719	14568.88
497.823	14568.88
497.926	14568.88
498.029	14568.88
498.132	14568.88
498.235	14568.88
498.338	14568.88
498.441	14568.88
498.544	14568.88
498.647	14568.88
498.75	14568.88
498.853	14568.88
498.956	14568.88
499.059	14568.88
499.163	14568.88
499.266	14568.88
499.369	14568.88
499.471	14568.88
499.574	14568.88
499.677	14568.88
499.78	14568.88
499.883	14568.88
499.986	14568.88
500.089	14568.88
500.192	14568.88
500.295	14568.88
500.398	14568.88
500.501	14568.88
500.604	14568.88
500.707	14568.88
500.809	14568.88
500.912	14568.88
501.015	14568.88
501.118	14568.88
501.221	14568.88
501.324	14568.88
501.426	14568.88
501.529	14568.88
501.632	14568.88
501.735	14568.88
501.837	14568.88
501.94	14568.88
502.043	14568.88
502.146	14568.88
502.248	14568.88
502.351	14568.88
502.454	14568.88
502.557	14568.88
502.659	14568.88
502.762	14568.88
502.865	14568.88
502.967	14568.88
503.07	14568.88
503.173	14568.88
503.275	14568.88
503.378	14568.88
503.48	14568.88
503.583	14568.88
503.686	14568.88
503.788	14568.88
503.891	14568.88
503.993	14568.88
504.096	14568.88
504.198	14568.88
504.301	14568.88
504.403	14568.88
504.506	14568.88
504.608	14568.88
504.711	14568.88
504.813	14568.88
504.916	14568.88
505.018	14568.88
505.121	14568.88
505.223	14568.88
505.326	14568.88
505.428	14568.88
505.531	14568.88
505.633	14568.88
505.735	14568.88
505.838	14568.88
505.94	14568.88
506.042	14568.88
506.145	14568.88
506.247	14568.88
506.35	14568.88
506.452	14568.88
506.554	14568.88
506.656	14568.88
506.759	14568.88
506.861	14568.88
506.963	14568.88
507.066	14568.88
507.168	14568.88
507.27	14568.88
507.372	14568.88
507.475	14568.88
507.577	14568.88
507.679	14568.88
507.781	14568.88
507.883	14568.88
507.986	14568.88
508.088	14568.88
508.19	14568.88
508.292	14568.88
508.394	14568.88
508.496	14568.88
508.598	14568.88
508.701	14568.88
508.803	14461.88
508.905	14399.88
509.007	14424.88
509.109	14351.88
509.211	14284.88
509.313	14266.88
509.415	14201.88
509.517	14351.88
509.619	14268.88
509.721	14277.88
509.823	14127.88
509.925	14370.88
510.027	14117.88
510.129	14096.88
510.231	14293.88
510.333	14083.88
510.435	14008.88
510.537	14213.88
510.639	14253.88
510.741	14191.88
510.843	14054.88
510.945	14067.88
511.047	14067.88
511.148	14211.88
511.25	14148.88
511.352	14138.88
511.454	13956.88
511.556	14265.88
511.658	14061.88
511.76	14168.88
511.861	14373.88
511.963	14053.88
512.065	14113.88
512.167	13926.88
512.268	14279.88
512.37	14286.88
512.472	14237.88
512.574	14179.88
512.676	14365.88
512.777	14165.88
512.879	14318.88
512.981	14409.88
513.082	14408.88
513.184	14372.88
513.286	14568.88
513.387	14447.88
513.489	14568.88
513.591	14568.88
513.692	14568.88
513.794	14568.88
513.896	14568.88
513.997	14568.88
514.099	14568.88
514.2	14568.88
514.302	14568.88
514.404	14568.88
514.505	14568.88
514.607	14568.88
514.708	14568.88
514.81	14568.88
514.911	14568.88
515.013	14568.88
515.114	14568.88
515.216	14568.88
515.317	14568.88
515.419	14568.88
515.52	14568.88
515.622	14568.88
515.723	14568.88
515.825	14568.88
515.926	14568.88
516.027	14568.88
516.129	14568.88
516.23	14568.88
516.332	14568.88
516.433	14568.88
516.534	14568.88
516.636	14568.88
516.737	14568.88
516.838	14568.88
516.94	14568.88
517.041	14568.88
517.142	14568.88
517.244	14568.88
517.345	14568.88
517.446	14568.88
517.547	14568.88
517.649	14568.88
517.75	14568.88
517.851	14568.88
517.952	14568.88
518.054	14568.88
518.155	14568.88
518.256	14568.88
518.357	14568.88
518.458	14568.88
518.56	14568.88
518.661	14568.88
518.762	14568.88
518.863	14568.88
518.964	14568.88
519.065	14568.88
519.166	14568.88
519.268	14568.88
519.369	14568.88
519.47	14568.88
519.571	14568.88
519.672	14568.88
519.773	14568.88
519.874	14568.88
519.975	14568.88
520.076	14568.88
520.177	14568.88
520.278	14568.88
520.379	14568.88
520.48	14568.88
520.581	14568.88
520.682	14568.88
520.783	14568.88
520.884	14568.88
520.985	14568.88
521.086	14568.88
521.187	14568.88
521.288	14568.88
521.389	14568.88
521.489	14568.88
521.59	14568.88
521.691	14568.88
521.792	14568.88
521.893	14568.88
521.994	14568.88
522.095	14568.88
522.195	14568.88
522.296	14568.88
522.397	14568.88
522.498	14568.88
522.599	14568.88
522.699	14568.88
522.8	14568.88
522.901	14568.88
523.002	14568.88
523.102	14568.88
523.203	14568.88
523.304	14568.88
523.405	14568.88
523.505	14568.88
523.606	14568.88
523.707	14568.88
523.807	14568.88
523.908	14568.88
524.009	14568.88
524.109	14568.88
524.21	14568.88
524.31	14568.88
524.411	14568.88
524.512	14568.88
524.612	14568.88
524.713	14568.88
524.813	14568.88
524.914	14568.88
525.014	14568.88
525.115	14568.88
525.216	14568.88
525.316	14568.88
525.417	14568.88
525.517	14568.88
525.618	14568.88
525.718	14568.88
525.819	14568.88
525.919	14568.88
526.019	14568.88
526.12	14568.88
526.22	14568.88
526.321	14568.88
526.421	14568.88
526.522	14568.88
526.622	14568.88
526.722	14568.88
526.823	14568.88
526.923	14568.88
527.023	14568.88
527.124	14568.88
527.224	14568.88
527.324	14568.88
527.425	14568.88
527.525	14568.88
527.625	14568.88
527.726	14568.88
527.826	14568.88
527.926	14568.88
528.026	14568.88
528.127	14568.88
528.227	14568.88
528.327	14568.88
528.427	14568.88
528.528	14568.88
528.628	14568.88
528.728	14568.88
528.828	14568.88
528.928	14568.88
529.029	14568.88
529.129	14568.88
529.229	14568.88
529.329	14568.88
529.429	14568.88
529.529	14568.88
529.629	14568.88
529.729	14568.88
529.829	14568.88
529.93	14568.88
530.03	14568.88
530.13	14568.88
530.23	14568.88
530.33	14568.88
530.43	14568.88
530.53	14568.88
530.63	14568.88
530.73	14568.88
530.83	14568.88
530.93	14568.88
531.03	14568.88
531.13	14568.88
531.23	14568.88
531.33	14568.88
531.429	14568.88
531.529	14568.88
