Data from 21g_HRC06701__93__337.txt Node

Date: Thu Apr 18 02:09:12 CDT 2024
User: Estudiantes 2
Spectrometer: HR+C0670
Trigger mode: 4
Integration Time (sec): 1.000000E0
Scans to average: 1
Electric dark correction enabled: true
Nonlinearity correction enabled: false
Boxcar width: 0
XAxis mode: Wavelengths
Number of Pixels in Spectrum: 2048
>>>>>Begin Spectral Data<<<<<
407.81	-111.38
407.921	-111.38
408.032	-111.38
408.143	-143.38
408.254	-139.38
408.365	17.62
408.476	302.62
408.587	-39.38
408.699	-19.38
408.81	-6.38
408.921	-26.38
409.032	-46.38
409.143	53.62
409.254	3.62
409.365	94.62
409.476	21.62
409.587	-11.38
409.698	49.62
409.809	104.62
409.92	-27.38
410.031	-17.38
410.142	41.62
410.253	56.62
410.364	-5.38
410.475	1114.62
410.585	5368.62
410.696	5747.62
410.807	5584.62
410.918	5734.62
411.029	5789.62
411.14	5744.62
411.251	5794.62
411.362	5777.62
411.472	5943.62
411.583	5861.62
411.694	6073.62
411.805	5976.62
411.916	6105.62
412.026	6110.62
412.137	6036.62
412.248	5895.62
412.359	5951.62
412.47	5815.62
412.58	5675.62
412.691	5998.62
412.802	5855.62
412.912	5739.62
413.023	5878.62
413.134	5826.62
413.245	5784.62
413.355	5786.62
413.466	5833.62
413.577	5756.62
413.687	5922.62
413.798	5773.62
413.909	5818.62
414.019	5921.62
414.13	5906.62
414.24	5883.62
414.351	5907.62
414.462	6199.62
414.572	5983.62
414.683	5927.62
414.793	5934.62
414.904	6232.62
415.014	5765.62
415.125	5784.62
415.235	5979.62
415.346	6062.62
415.456	6002.62
415.567	5936.62
415.677	5839.62
415.788	5886.62
415.898	5811.62
416.009	5820.62
416.119	5861.62
416.23	5823.62
416.34	5873.62
416.45	5774.62
416.561	6689.62
416.671	5968.62
416.782	5757.62
416.892	5976.62
417.002	6042.62
417.113	6098.62
417.223	6010.62
417.333	5967.62
417.444	6080.62
417.554	6084.62
417.664	6171.62
417.775	6064.62
417.885	6248.62
417.995	6340.62
418.106	6645.62
418.216	6442.62
418.326	6603.62
418.436	6597.62
418.547	6572.62
418.657	6585.62
418.767	6793.62
418.877	6799.62
418.987	6805.62
419.098	6906.62
419.208	6966.62
419.318	6908.62
419.428	6821.62
419.538	6832.62
419.648	6881.62
419.759	6835.62
419.869	6772.62
419.979	6793.62
420.089	6783.62
420.199	6831.62
420.309	6880.62
420.419	6858.62
420.529	6754.62
420.639	7331.62
420.749	7048.62
420.859	7075.62
420.969	7145.62
421.079	7314.62
421.189	6972.62
421.299	7012.62
421.409	6972.62
421.519	7185.62
421.629	7306.62
421.739	7291.62
421.849	7179.62
421.959	7228.62
422.069	7523.62
422.179	7392.62
422.289	7448.62
422.399	7760.62
422.509	7764.62
422.619	9989.62
422.729	7996.62
422.838	7772.62
422.948	7731.62
423.058	7941.62
423.168	8005.62
423.278	7980.62
423.388	8155.62
423.498	8506.62
423.607	8236.62
423.717	8722.62
423.827	8785.62
423.937	8439.62
424.046	8547.62
424.156	8669.62
424.266	8508.62
424.376	8837.62
424.485	8783.62
424.595	8718.62
424.705	8654.62
424.815	8828.62
424.924	9337.62
425.034	8785.62
425.144	8767.62
425.253	8758.62
425.363	8959.62
425.473	8884.62
425.582	8699.62
425.692	8903.62
425.801	8841.62
425.911	8957.62
426.021	9084.62
426.13	9116.62
426.24	9277.62
426.349	9400.62
426.459	9102.62
426.568	9187.62
426.678	9421.62
426.787	9298.62
426.897	9367.62
427.006	9425.62
427.116	9657.62
427.225	9460.62
427.335	9755.62
427.444	9574.62
427.554	9515.62
427.663	9700.62
427.773	9702.62
427.882	9783.62
427.992	9766.62
428.101	9938.62
428.21	9779.62
428.32	9965.62
428.429	9846.62
428.539	10328.62
428.648	10017.62
428.757	10101.62
428.867	10230.62
428.976	10471.62
429.085	10349.62
429.195	10469.62
429.304	10420.62
429.413	10449.62
429.523	10497.62
429.632	10323.62
429.741	10490.62
429.85	10608.62
429.96	10769.62
430.069	10597.62
430.178	10668.62
430.287	10929.62
430.397	10956.62
430.506	10891.62
430.615	10998.62
430.724	10936.62
430.833	11126.62
430.943	11126.62
431.052	11231.62
431.161	11268.62
431.27	11587.62
431.379	11617.62
431.488	11966.62
431.597	11891.62
431.706	12077.62
431.816	11940.62
431.925	11920.62
432.034	11961.62
432.143	11931.62
432.252	11761.62
432.361	11837.62
432.47	11919.62
432.579	11832.62
432.688	11738.62
432.797	11959.62
432.906	11803.62
433.015	12021.62
433.124	12315.62
433.233	12163.62
433.342	12034.62
433.451	12148.62
433.56	12152.62
433.669	12261.62
433.778	12343.62
433.886	12493.62
433.995	12472.62
434.104	12851.62
434.213	12784.62
434.322	12915.62
434.431	13202.62
434.54	13623.62
434.649	13870.62
434.757	13848.62
434.866	13703.62
434.975	13363.62
435.084	13302.62
435.193	12863.62
435.301	12946.62
435.41	12590.62
435.519	12819.62
435.628	12050.62
435.737	11749.62
435.845	11802.62
435.954	11527.62
436.063	11555.62
436.171	11573.62
436.28	11613.62
436.389	11798.62
436.498	11320.62
436.606	11515.62
436.715	11683.62
436.823	11147.62
436.932	11129.62
437.041	11099.62
437.149	11060.62
437.258	10881.62
437.367	10536.62
437.475	10735.62
437.584	11008.62
437.692	10574.62
437.801	12249.62
437.91	10667.62
438.018	10551.62
438.127	10369.62
438.235	10527.62
438.344	10549.62
438.452	10429.62
438.561	10375.62
438.669	10432.62
438.778	10293.62
438.886	10315.62
438.995	10284.62
439.103	10507.62
439.212	10380.62
439.32	10501.62
439.428	10440.62
439.537	10508.62
439.645	10696.62
439.754	10676.62
439.862	10441.62
439.97	10714.62
440.079	10800.62
440.187	10612.62
440.295	10954.62
440.404	10717.62
440.512	10962.62
440.62	10952.62
440.729	11049.62
440.837	11406.62
440.945	12067.62
441.054	11613.62
441.162	11698.62
441.27	11962.62
441.378	12224.62
441.487	12318.62
441.595	12531.62
441.703	12208.62
441.811	11864.62
441.92	11954.62
442.028	11440.62
442.136	11769.62
442.244	11656.62
442.352	11668.62
442.461	11415.62
442.569	11346.62
442.677	11466.62
442.785	11460.62
442.893	11455.62
443.001	11563.62
443.109	11374.62
443.217	11548.62
443.325	11625.62
443.434	12387.62
443.542	12120.62
443.65	11837.62
443.758	12156.62
443.866	12193.62
443.974	12610.62
444.082	12674.62
444.19	13055.62
444.298	13260.62
444.406	13741.62
444.514	13904.62
444.622	14044.62
444.73	13970.62
444.838	13685.62
444.946	13568.62
445.054	12952.62
445.161	12841.62
445.269	12261.62
445.377	12289.62
445.485	12178.62
445.593	11992.62
445.701	11928.62
445.809	11988.62
445.917	11774.62
446.025	11634.62
446.132	11929.62
446.24	11649.62
446.348	11595.62
446.456	11538.62
446.564	11544.62
446.671	11532.62
446.779	11517.62
446.887	11416.62
446.995	11190.62
447.102	11355.62
447.21	11472.62
447.318	11229.62
447.426	11128.62
447.533	11523.62
447.641	12482.62
447.749	11150.62
447.856	11191.62
447.964	11159.62
448.072	11210.62
448.179	11121.62
448.287	11165.62
448.395	11279.62
448.502	11032.62
448.61	11312.62
448.718	11155.62
448.825	11204.62
448.933	11382.62
449.04	11293.62
449.148	11420.62
449.256	11458.62
449.363	11548.62
449.471	11665.62
449.578	11708.62
449.686	11656.62
449.793	11867.62
449.901	11897.62
450.008	11968.62
450.116	11946.62
450.223	11994.62
450.331	12293.62
450.438	12280.62
450.546	12532.62
450.653	12457.62
450.76	12672.62
450.868	12770.62
450.975	12930.62
451.083	12662.62
451.19	12937.62
451.297	12728.62
451.405	12868.62
451.512	13060.62
451.619	13048.62
451.727	13149.62
451.834	12998.62
451.941	13067.62
452.049	13100.62
452.156	13316.62
452.263	13202.62
452.371	13306.62
452.478	13493.62
452.585	13561.62
452.692	13428.62
452.8	13562.62
452.907	13945.62
453.014	13660.62
453.121	13826.62
453.229	13763.62
453.336	13768.62
453.443	13817.62
453.55	13834.62
453.657	13708.62
453.765	14431.62
453.872	14145.62
453.979	14172.62
454.086	14475.62
454.193	14505.62
454.3	14073.62
454.407	14517.62
454.514	14566.62
454.621	14345.62
454.729	14457.62
454.836	14566.62
454.943	14566.62
455.05	14566.62
455.157	14566.62
455.264	14566.62
455.371	14566.62
455.478	14566.62
455.585	14566.62
455.692	14566.62
455.799	14566.62
455.906	14566.62
456.013	14566.62
456.12	14566.62
456.227	14566.62
456.334	14566.62
456.44	14566.62
456.547	14566.62
456.654	14566.62
456.761	14566.62
456.868	14566.62
456.975	14566.62
457.082	14566.62
457.189	14566.62
457.296	14566.62
457.402	14566.62
457.509	14566.62
457.616	14566.62
457.723	14566.62
457.83	14566.62
457.936	14566.62
458.043	14566.62
458.15	14566.62
458.257	14566.62
458.363	14566.62
458.47	14566.62
458.577	14566.62
458.684	14566.62
458.79	14566.62
458.897	14566.62
459.004	14566.62
459.11	14566.62
459.217	14566.62
459.324	14566.62
459.43	14566.62
459.537	14566.62
459.644	14566.62
459.75	14566.62
459.857	14566.62
459.964	14566.62
460.07	14566.62
460.177	14566.62
460.283	14566.62
460.39	14566.62
460.496	14566.62
460.603	14566.62
460.71	14566.62
460.816	14566.62
460.923	14566.62
461.029	14566.62
461.136	14566.62
461.242	14566.62
461.349	14566.62
461.455	14566.62
461.562	14566.62
461.668	14566.62
461.774	14566.62
461.881	14566.62
461.987	14566.62
462.094	14566.62
462.2	14566.62
462.307	14566.62
462.413	14566.62
462.519	14566.62
462.626	14566.62
462.732	14566.62
462.838	14566.62
462.945	14566.62
463.051	14566.62
463.157	14566.62
463.264	14566.62
463.37	14566.62
463.476	14566.62
463.583	14566.62
463.689	14566.62
463.795	14566.62
463.901	14566.62
464.008	14566.62
464.114	14566.62
464.22	14566.62
464.326	14566.62
464.433	14566.62
464.539	14566.62
464.645	14566.62
464.751	14566.62
464.857	14566.62
464.963	14566.62
465.07	14566.62
465.176	14566.62
465.282	14566.62
465.388	14566.62
465.494	14566.62
465.6	14566.62
465.706	14566.62
465.812	14566.62
465.918	14566.62
466.024	14566.62
466.131	14566.62
466.237	14566.62
466.343	14566.62
466.449	14566.62
466.555	14566.62
466.661	14566.62
466.767	14566.62
466.873	14566.62
466.979	14566.62
467.085	14566.62
467.191	14566.62
467.296	14566.62
467.402	14566.62
467.508	14566.62
467.614	14566.62
467.72	14566.62
467.826	14566.62
467.932	14566.62
468.038	14566.62
468.144	14566.62
468.25	14566.62
468.355	14566.62
468.461	14566.62
468.567	14566.62
468.673	14566.62
468.779	14400.62
468.885	14566.62
468.99	14566.62
469.096	14566.62
469.202	14566.62
469.308	14566.62
469.413	14566.62
469.519	14566.62
469.625	14566.62
469.731	14566.62
469.836	14566.62
469.942	14566.62
470.048	14566.62
470.153	14566.62
470.259	14566.62
470.365	14566.62
470.47	14566.62
470.576	14566.62
470.682	14566.62
470.787	14566.62
470.893	14566.62
470.999	14454.62
471.104	14297.62
471.21	14051.62
471.315	13836.62
471.421	13716.62
471.527	13865.62
471.632	13612.62
471.738	13363.62
471.843	13299.62
471.949	13089.62
472.054	13194.62
472.16	13058.62
472.265	12833.62
472.371	12695.62
472.476	12670.62
472.582	12950.62
472.687	12484.62
472.793	12455.62
472.898	12480.62
473.003	12435.62
473.109	12291.62
473.214	12346.62
473.32	12252.62
473.425	12216.62
473.53	12437.62
473.636	12079.62
473.741	12088.62
473.847	12148.62
473.952	12179.62
474.057	12043.62
474.163	12181.62
474.268	12026.62
474.373	12113.62
474.478	12032.62
474.584	11975.62
474.689	12118.62
474.794	12069.62
474.9	12457.62
475.005	11868.62
475.11	12104.62
475.215	12140.62
475.321	12157.62
475.426	12325.62
475.531	12163.62
475.636	12217.62
475.741	12145.62
475.846	12460.62
475.952	12566.62
476.057	12249.62
476.162	12541.62
476.267	12621.62
476.372	12714.62
476.477	12588.62
476.582	12696.62
476.687	12732.62
476.793	12796.62
476.898	12926.62
477.003	13026.62
477.108	12961.62
477.213	13016.62
477.318	13161.62
477.423	13330.62
477.528	13557.62
477.633	13725.62
477.738	13847.62
477.843	13889.62
477.948	14253.62
478.053	14321.62
478.158	14143.62
478.263	14457.62
478.368	14221.62
478.473	14566.62
478.578	14566.62
478.682	14566.62
478.787	14566.62
478.892	14566.62
478.997	14566.62
479.102	14566.62
479.207	14566.62
479.312	14566.62
479.417	14566.62
479.521	14566.62
479.626	14566.62
479.731	14566.62
479.836	14566.62
479.941	14566.62
480.045	14566.62
480.15	14566.62
480.255	14566.62
480.36	14566.62
480.465	14566.62
480.569	14566.62
480.674	14566.62
480.779	14566.62
480.883	14566.62
480.988	14566.62
481.093	14566.62
481.197	14566.62
481.302	14566.62
481.407	14566.62
481.511	14566.62
481.616	14566.62
481.721	14566.62
481.825	14566.62
481.93	14566.62
482.035	14566.62
482.139	14566.62
482.244	14566.62
482.348	14566.62
482.453	14566.62
482.557	14566.62
482.662	14566.62
482.767	14566.62
482.871	14566.62
482.976	14566.62
483.08	14566.62
483.185	14566.62
483.289	14566.62
483.394	14566.62
483.498	14566.62
483.603	14566.62
483.707	14566.62
483.811	14566.62
483.916	14566.62
484.02	14566.62
484.125	14566.62
484.229	14566.62
484.333	14566.62
484.438	14566.62
484.542	14566.62
484.647	14566.62
484.751	14566.62
484.855	14566.62
484.96	14566.62
485.064	14566.62
485.168	14566.62
485.273	14566.62
485.377	14566.62
485.481	14566.62
485.585	14566.62
485.69	14566.62
485.794	14566.62
485.898	14566.62
486.002	14566.62
486.107	14566.62
486.211	14566.62
486.315	14566.62
486.419	14566.62
486.524	14566.62
486.628	14566.62
486.732	14566.62
486.836	14566.62
486.94	14566.62
487.044	14566.62
487.148	14566.62
487.253	14566.62
487.357	14566.62
487.461	14566.62
487.565	14566.62
487.669	14566.62
487.773	14566.62
487.877	14566.62
487.981	14566.62
488.085	14566.62
488.189	14566.62
488.293	14566.62
488.397	14566.62
488.501	14566.62
488.605	14566.62
488.709	14566.62
488.813	14566.62
488.917	14566.62
489.021	14566.62
489.125	14566.62
489.229	14566.62
489.333	14566.62
489.437	14566.62
489.541	14566.62
489.645	14566.62
489.749	14566.62
489.853	14566.62
489.956	14566.62
490.06	14566.62
490.164	14566.62
490.268	14566.62
490.372	14566.62
490.476	14566.62
490.579	14566.62
490.683	14566.62
490.787	14566.62
490.891	14566.62
490.995	14566.62
491.098	14566.62
491.202	14566.62
491.306	14566.62
491.41	14566.62
491.513	14566.62
491.617	14566.62
491.721	14566.62
491.824	14566.62
491.928	14566.62
492.032	14566.62
492.136	14566.62
492.239	14566.62
492.343	14566.62
492.446	14566.62
492.55	14566.62
492.654	14566.62
492.757	14566.62
492.861	14566.62
492.965	14566.62
493.068	14566.62
493.172	14566.62
493.275	14566.62
493.379	14566.62
493.482	14566.62
493.586	14566.62
493.689	14566.62
493.793	14566.62
493.896	14566.62
494	14566.62
494.103	14566.62
494.207	14566.62
494.31	14566.62
494.414	14566.62
494.517	14566.62
494.621	14566.62
494.724	14566.62
494.828	14566.62
494.931	14566.62
495.034	14566.62
495.138	14566.62
495.241	14566.62
495.345	14566.62
495.448	14566.62
495.551	14566.62
495.655	14566.62
495.758	14566.62
495.861	14566.62
495.965	14566.62
496.068	14566.62
496.171	14566.62
496.274	14566.62
496.378	14566.62
496.481	14566.62
496.584	14566.62
496.687	14566.62
496.791	14566.62
496.894	14566.62
496.997	14566.62
497.1	14566.62
497.204	14566.62
497.307	14566.62
497.41	14566.62
497.513	14566.62
497.616	14566.62
497.719	14566.62
497.823	14566.62
497.926	14566.62
498.029	14566.62
498.132	14566.62
498.235	14566.62
498.338	14566.62
498.441	14566.62
498.544	14566.62
498.647	14566.62
498.75	14566.62
498.853	14566.62
498.956	14566.62
499.059	14566.62
499.163	14566.62
499.266	14566.62
499.369	14566.62
499.471	14566.62
499.574	14566.62
499.677	14566.62
499.78	14566.62
499.883	14566.62
499.986	14566.62
500.089	14566.62
500.192	14566.62
500.295	14566.62
500.398	14566.62
500.501	14566.62
500.604	14566.62
500.707	14566.62
500.809	14566.62
500.912	14566.62
501.015	14566.62
501.118	14566.62
501.221	14566.62
501.324	14566.62
501.426	14566.62
501.529	14566.62
501.632	14566.62
501.735	14566.62
501.837	14566.62
501.94	14566.62
502.043	14566.62
502.146	14566.62
502.248	14566.62
502.351	14566.62
502.454	14566.62
502.557	14566.62
502.659	14566.62
502.762	14566.62
502.865	14566.62
502.967	14566.62
503.07	14566.62
503.173	14566.62
503.275	14566.62
503.378	14566.62
503.48	14566.62
503.583	14566.62
503.686	14566.62
503.788	14566.62
503.891	14566.62
503.993	14566.62
504.096	14566.62
504.198	14566.62
504.301	14566.62
504.403	14566.62
504.506	14566.62
504.608	14566.62
504.711	14566.62
504.813	14566.62
504.916	14566.62
505.018	14566.62
505.121	14566.62
505.223	14566.62
505.326	14566.62
505.428	14566.62
505.531	14566.62
505.633	14566.62
505.735	14566.62
505.838	14566.62
505.94	14566.62
506.042	14566.62
506.145	14566.62
506.247	14566.62
506.35	14316.62
506.452	14236.62
506.554	14403.62
506.656	14400.62
506.759	14313.62
506.861	14105.62
506.963	13962.62
507.066	14132.62
507.168	14090.62
507.27	14041.62
507.372	13818.62
507.475	13814.62
507.577	13695.62
507.679	13649.62
507.781	13395.62
507.883	13471.62
507.986	13293.62
508.088	13217.62
508.19	13333.62
508.292	13246.62
508.394	13144.62
508.496	13123.62
508.598	13145.62
508.701	13182.62
508.803	13061.62
508.905	12844.62
509.007	12992.62
509.109	12974.62
509.211	12989.62
509.313	12993.62
509.415	12746.62
509.517	12875.62
509.619	12687.62
509.721	12780.62
509.823	12799.62
509.925	12972.62
510.027	12733.62
510.129	12600.62
510.231	12816.62
510.333	12505.62
510.435	12596.62
510.537	12742.62
510.639	12762.62
510.741	12670.62
510.843	12658.62
510.945	12699.62
511.047	12671.62
511.148	12828.62
511.25	12744.62
511.352	12764.62
511.454	12568.62
511.556	12756.62
511.658	12611.62
511.76	12849.62
511.861	12992.62
511.963	12522.62
512.065	12473.62
512.167	12619.62
512.268	12892.62
512.37	12932.62
512.472	12762.62
512.574	12800.62
512.676	12987.62
512.777	12835.62
512.879	12748.62
512.981	12759.62
513.082	12794.62
513.184	12937.62
513.286	13450.62
513.387	13075.62
513.489	13138.62
513.591	13157.62
513.692	13242.62
513.794	13127.62
513.896	13007.62
513.997	13035.62
514.099	13185.62
514.2	13457.62
514.302	13262.62
514.404	13562.62
514.505	13493.62
514.607	13626.62
514.708	13473.62
514.81	13697.62
514.911	13784.62
515.013	13940.62
515.114	13987.62
515.216	14049.62
515.317	14259.62
515.419	14104.62
515.52	14454.62
515.622	14500.62
515.723	14564.62
515.825	14566.62
515.926	14566.62
516.027	14566.62
516.129	14566.62
516.23	14566.62
516.332	14566.62
516.433	14566.62
516.534	14566.62
516.636	14566.62
516.737	14566.62
516.838	14566.62
516.94	14566.62
517.041	14566.62
517.142	14566.62
517.244	14566.62
517.345	14566.62
517.446	14566.62
517.547	14566.62
517.649	14566.62
517.75	14566.62
517.851	14566.62
517.952	14566.62
518.054	14566.62
518.155	14566.62
518.256	14566.62
518.357	14566.62
518.458	14566.62
518.56	14566.62
518.661	14566.62
518.762	14566.62
518.863	14566.62
518.964	14566.62
519.065	14566.62
519.166	14566.62
519.268	14566.62
519.369	14566.62
519.47	14566.62
519.571	14566.62
519.672	14566.62
519.773	14566.62
519.874	14566.62
519.975	14566.62
520.076	14566.62
520.177	14566.62
520.278	14566.62
520.379	14566.62
520.48	14566.62
520.581	14566.62
520.682	14566.62
520.783	14566.62
520.884	14566.62
520.985	14566.62
521.086	14566.62
521.187	14566.62
521.288	14566.62
521.389	14566.62
521.489	14566.62
521.59	14566.62
521.691	14566.62
521.792	14566.62
521.893	14566.62
521.994	14566.62
522.095	14566.62
522.195	14566.62
522.296	14563.62
522.397	14566.62
522.498	14501.62
522.599	14462.62
522.699	14566.62
522.8	14534.62
522.901	14400.62
523.002	14449.62
523.102	14566.62
523.203	14404.62
523.304	14566.62
523.405	14566.62
523.505	14504.62
523.606	14566.62
523.707	14566.62
523.807	14552.62
523.908	14523.62
524.009	14566.62
524.109	14566.62
524.21	14566.62
524.31	14566.62
524.411	14566.62
524.512	14566.62
524.612	14566.62
524.713	14566.62
524.813	14566.62
524.914	14566.62
525.014	14566.62
525.115	14566.62
525.216	14566.62
525.316	14566.62
525.417	14566.62
525.517	14566.62
525.618	14566.62
525.718	14566.62
525.819	14566.62
525.919	14566.62
526.019	14566.62
526.12	14566.62
526.22	14566.62
526.321	14566.62
526.421	14566.62
526.522	14566.62
526.622	14566.62
526.722	14566.62
526.823	14566.62
526.923	14566.62
527.023	14566.62
527.124	14566.62
527.224	14566.62
527.324	14566.62
527.425	14566.62
527.525	14566.62
527.625	14566.62
527.726	14566.62
527.826	14566.62
527.926	14566.62
528.026	14566.62
528.127	14535.62
528.227	14566.62
528.327	14566.62
528.427	14566.62
528.528	14566.62
528.628	14566.62
528.728	14566.62
528.828	14566.62
528.928	14566.62
529.029	14566.62
529.129	14566.62
529.229	14566.62
529.329	14566.62
529.429	14566.62
529.529	14566.62
529.629	14566.62
529.729	14556.62
529.829	14566.62
529.93	14559.62
530.03	14566.62
530.13	14471.62
530.23	14566.62
530.33	14557.62
530.43	14566.62
530.53	14566.62
530.63	14551.62
530.73	14318.62
530.83	14151.62
530.93	14510.62
531.03	14317.62
531.13	14523.62
531.23	14452.62
531.33	14433.62
531.429	14404.62
531.529	14395.62
531.629	14425.62
531.729	14292.62
