Data from 21g_HRC06701__109__353.txt Node

Date: Thu Apr 18 02:09:28 CDT 2024
User: Estudiantes 2
Spectrometer: HR+C0670
Trigger mode: 4
Integration Time (sec): 1.000000E0
Scans to average: 1
Electric dark correction enabled: true
Nonlinearity correction enabled: false
Boxcar width: 0
XAxis mode: Wavelengths
Number of Pixels in Spectrum: 2048
>>>>>Begin Spectral Data<<<<<
407.81	-147.88
407.921	-147.88
408.032	-147.88
408.143	-130.88
408.254	-88.88
408.365	17.12
408.476	245.12
408.587	8.12
408.699	-41.88
408.81	-1.88
408.921	-20.88
409.032	-41.88
409.143	32.12
409.254	50.12
409.365	91.12
409.476	-57.88
409.587	-19.88
409.698	108.12
409.809	38.12
409.92	-36.88
410.031	1.12
410.142	30.12
410.253	20.12
410.364	49.12
410.475	784.12
410.585	3912.12
410.696	4162.12
410.807	4136.12
410.918	4096.12
411.029	4242.12
411.14	4309.12
411.251	4102.12
411.362	4308.12
411.472	4335.12
411.583	4268.12
411.694	4356.12
411.805	4358.12
411.916	4473.12
412.026	4445.12
412.137	4422.12
412.248	4337.12
412.359	4247.12
412.47	4130.12
412.58	4089.12
412.691	4249.12
412.802	4163.12
412.912	4213.12
413.023	4156.12
413.134	4193.12
413.245	4331.12
413.355	4236.12
413.466	4135.12
413.577	4130.12
413.687	4282.12
413.798	4028.12
413.909	4240.12
414.019	4313.12
414.13	4321.12
414.24	4312.12
414.351	4360.12
414.462	4584.12
414.572	4391.12
414.683	4366.12
414.793	4268.12
414.904	4538.12
415.014	4281.12
415.125	4196.12
415.235	4314.12
415.346	4380.12
415.456	4418.12
415.567	4272.12
415.677	4122.12
415.788	4250.12
415.898	4145.12
416.009	4149.12
416.119	4328.12
416.23	4120.12
416.34	4195.12
416.45	4287.12
416.561	4998.12
416.671	4294.12
416.782	4276.12
416.892	4433.12
417.002	4301.12
417.113	4504.12
417.223	4461.12
417.333	4343.12
417.444	4415.12
417.554	4535.12
417.664	4541.12
417.775	4399.12
417.885	4594.12
417.995	4585.12
418.106	4933.12
418.216	4729.12
418.326	4946.12
418.436	4925.12
418.547	4903.12
418.657	4906.12
418.767	5020.12
418.877	4985.12
418.987	5054.12
419.098	4948.12
419.208	5009.12
419.318	5041.12
419.428	5038.12
419.538	4907.12
419.648	5000.12
419.759	4995.12
419.869	4896.12
419.979	4931.12
420.089	5000.12
420.199	4930.12
420.309	5058.12
420.419	5043.12
420.529	5047.12
420.639	5383.12
420.749	5121.12
420.859	5225.12
420.969	5127.12
421.079	5345.12
421.189	5213.12
421.299	4998.12
421.409	5086.12
421.519	5331.12
421.629	5329.12
421.739	5223.12
421.849	5295.12
421.959	5255.12
422.069	5382.12
422.179	5503.12
422.289	5538.12
422.399	5633.12
422.509	5764.12
422.619	8180.12
422.729	5923.12
422.838	5729.12
422.948	5923.12
423.058	5822.12
423.168	5913.12
423.278	5986.12
423.388	6069.12
423.498	6189.12
423.607	6119.12
423.717	6517.12
423.827	6454.12
423.937	6311.12
424.046	6448.12
424.156	6458.12
424.266	6344.12
424.376	6622.12
424.485	6423.12
424.595	6440.12
424.705	6388.12
424.815	6367.12
424.924	6858.12
425.034	6454.12
425.144	6372.12
425.253	6358.12
425.363	6536.12
425.473	6638.12
425.582	6299.12
425.692	6448.12
425.801	6375.12
425.911	6605.12
426.021	6626.12
426.13	6751.12
426.24	6699.12
426.349	6713.12
426.459	6621.12
426.568	6690.12
426.678	6770.12
426.787	6726.12
426.897	6757.12
427.006	6767.12
427.116	6817.12
427.225	6876.12
427.335	6902.12
427.444	6842.12
427.554	6923.12
427.663	6893.12
427.773	6925.12
427.882	7129.12
427.992	6922.12
428.101	7108.12
428.21	7026.12
428.32	7159.12
428.429	7065.12
428.539	7454.12
428.648	7253.12
428.757	7168.12
428.867	7265.12
428.976	7531.12
429.085	7379.12
429.195	7340.12
429.304	7290.12
429.413	7402.12
429.523	7417.12
429.632	7509.12
429.741	7563.12
429.85	7411.12
429.96	7613.12
430.069	7663.12
430.178	7583.12
430.287	8013.12
430.397	7775.12
430.506	7741.12
430.615	7771.12
430.724	7903.12
430.833	7869.12
430.943	7850.12
431.052	8015.12
431.161	8251.12
431.27	8152.12
431.379	8197.12
431.488	8683.12
431.597	8644.12
431.706	8714.12
431.816	8649.12
431.925	8506.12
432.034	8507.12
432.143	8533.12
432.252	8401.12
432.361	8541.12
432.47	8508.12
432.579	8599.12
432.688	8484.12
432.797	8423.12
432.906	8417.12
433.015	8522.12
433.124	8844.12
433.233	8606.12
433.342	8670.12
433.451	8755.12
433.56	8699.12
433.669	8624.12
433.778	8720.12
433.886	8942.12
433.995	8880.12
434.104	9218.12
434.213	9182.12
434.322	9350.12
434.431	9636.12
434.54	9974.12
434.649	10206.12
434.757	10247.12
434.866	9963.12
434.975	9879.12
435.084	9650.12
435.193	9342.12
435.301	9420.12
435.41	9201.12
435.519	9315.12
435.628	8479.12
435.737	8413.12
435.845	8286.12
435.954	8178.12
436.063	8199.12
436.171	8341.12
436.28	8239.12
436.389	8482.12
436.498	8174.12
436.606	8130.12
436.715	8491.12
436.823	8023.12
436.932	7942.12
437.041	7756.12
437.149	7857.12
437.258	7688.12
437.367	7529.12
437.475	7650.12
437.584	7841.12
437.692	7489.12
437.801	9274.12
437.91	7663.12
438.018	7511.12
438.127	7396.12
438.235	7613.12
438.344	7515.12
438.452	7383.12
438.561	7353.12
438.669	7342.12
438.778	7244.12
438.886	7447.12
438.995	7334.12
439.103	7425.12
439.212	7520.12
439.32	7549.12
439.428	7472.12
439.537	7488.12
439.645	7772.12
439.754	7713.12
439.862	7380.12
439.97	7740.12
440.079	7784.12
440.187	7593.12
440.295	7839.12
440.404	7796.12
440.512	7806.12
440.62	7927.12
440.729	8000.12
440.837	8069.12
440.945	9015.12
441.054	8512.12
441.162	8554.12
441.27	8838.12
441.378	8982.12
441.487	8968.12
441.595	9275.12
441.703	9032.12
441.811	8659.12
441.92	8552.12
442.028	8411.12
442.136	8502.12
442.244	8408.12
442.352	8395.12
442.461	8223.12
442.569	8116.12
442.677	8315.12
442.785	8425.12
442.893	8242.12
443.001	8322.12
443.109	8400.12
443.217	8328.12
443.325	8378.12
443.434	9042.12
443.542	8915.12
443.65	8569.12
443.758	8905.12
443.866	8994.12
443.974	9354.12
444.082	9295.12
444.19	9654.12
444.298	9849.12
444.406	10082.12
444.514	10605.12
444.622	10748.12
444.73	10646.12
444.838	10289.12
444.946	10122.12
445.054	9441.12
445.161	9274.12
445.269	8921.12
445.377	8821.12
445.485	8795.12
445.593	8635.12
445.701	8729.12
445.809	8486.12
445.917	8407.12
446.025	8156.12
446.132	8374.12
446.24	8425.12
446.348	8502.12
446.456	8185.12
446.564	8230.12
446.671	8351.12
446.779	8173.12
446.887	8007.12
446.995	7935.12
447.102	8166.12
447.21	8165.12
447.318	7974.12
447.426	7921.12
447.533	8188.12
447.641	9370.12
447.749	7972.12
447.856	7838.12
447.964	7976.12
448.072	8107.12
448.179	7910.12
448.287	7856.12
448.395	7951.12
448.502	7798.12
448.61	7951.12
448.718	7910.12
448.825	8012.12
448.933	7920.12
449.04	8022.12
449.148	8176.12
449.256	8086.12
449.363	8216.12
449.471	8143.12
449.578	8343.12
449.686	8190.12
449.793	8523.12
449.901	8317.12
450.008	8392.12
450.116	8648.12
450.223	8700.12
450.331	8759.12
450.438	8850.12
450.546	8962.12
450.653	8973.12
450.76	9138.12
450.868	9200.12
450.975	9459.12
451.083	9227.12
451.19	9310.12
451.297	9215.12
451.405	9311.12
451.512	9404.12
451.619	9530.12
451.727	9502.12
451.834	9412.12
451.941	9370.12
452.049	9473.12
452.156	9483.12
452.263	9670.12
452.371	9709.12
452.478	9589.12
452.585	9851.12
452.692	9419.12
452.8	9716.12
452.907	9980.12
453.014	9729.12
453.121	9853.12
453.229	9884.12
453.336	9975.12
453.443	9991.12
453.55	9921.12
453.657	9907.12
453.765	10159.12
453.872	10095.12
453.979	10251.12
454.086	10251.12
454.193	10114.12
454.3	10092.12
454.407	10289.12
454.514	10396.12
454.621	10228.12
454.729	10175.12
454.836	10274.12
454.943	10427.12
455.05	10508.12
455.157	10546.12
455.264	10408.12
455.371	10687.12
455.478	10568.12
455.585	12075.12
455.692	10746.12
455.799	10824.12
455.906	10746.12
456.013	10589.12
456.12	10863.12
456.227	10770.12
456.334	10944.12
456.44	11178.12
456.547	11073.12
456.654	10950.12
456.761	11184.12
456.868	11223.12
456.975	11120.12
457.082	11043.12
457.189	11116.12
457.296	11304.12
457.402	11352.12
457.509	11422.12
457.616	11617.12
457.723	11938.12
457.83	11757.12
457.936	11970.12
458.043	12515.12
458.15	12219.12
458.257	12493.12
458.363	12579.12
458.47	13055.12
458.577	13251.12
458.684	13237.12
458.79	13707.12
458.897	13887.12
459.004	14282.12
459.11	14215.12
459.217	14349.12
459.324	14471.12
459.43	14564.12
459.537	14564.12
459.644	14564.12
459.75	14564.12
459.857	14564.12
459.964	14564.12
460.07	14564.12
460.177	14564.12
460.283	14564.12
460.39	14564.12
460.496	14564.12
460.603	14564.12
460.71	14564.12
460.816	14564.12
460.923	14564.12
461.029	14564.12
461.136	14564.12
461.242	14564.12
461.349	14564.12
461.455	14564.12
461.562	14564.12
461.668	14564.12
461.774	14564.12
461.881	14564.12
461.987	14564.12
462.094	14564.12
462.2	14564.12
462.307	14564.12
462.413	14564.12
462.519	14564.12
462.626	14564.12
462.732	14564.12
462.838	14564.12
462.945	14564.12
463.051	14564.12
463.157	14564.12
463.264	14564.12
463.37	14564.12
463.476	14564.12
463.583	14564.12
463.689	14564.12
463.795	14564.12
463.901	14564.12
464.008	14564.12
464.114	14564.12
464.22	14564.12
464.326	14564.12
464.433	14564.12
464.539	14564.12
464.645	14564.12
464.751	14564.12
464.857	14564.12
464.963	14564.12
465.07	14564.12
465.176	14564.12
465.282	14456.12
465.388	14193.12
465.494	13726.12
465.6	13466.12
465.706	13168.12
465.812	13066.12
465.918	12925.12
466.024	12724.12
466.131	12563.12
466.237	12175.12
466.343	12010.12
466.449	11918.12
466.555	11743.12
466.661	11494.12
466.767	11472.12
466.873	11404.12
466.979	11509.12
467.085	11467.12
467.191	11426.12
467.296	11232.12
467.402	11368.12
467.508	11409.12
467.614	11240.12
467.72	10751.12
467.826	10691.12
467.932	10571.12
468.038	10300.12
468.144	10376.12
468.25	10233.12
468.355	10219.12
468.461	10383.12
468.567	10183.12
468.673	10243.12
468.779	10205.12
468.885	10104.12
468.99	10143.12
469.096	10274.12
469.202	10412.12
469.308	10323.12
469.413	10595.12
469.519	10728.12
469.625	10582.12
469.731	10594.12
469.836	10877.12
469.942	10965.12
470.048	10903.12
470.153	10965.12
470.259	10938.12
470.365	11005.12
470.47	10814.12
470.576	10591.12
470.682	10534.12
470.787	10422.12
470.893	10238.12
470.999	10185.12
471.104	10026.12
471.21	9862.12
471.315	9644.12
471.421	9515.12
471.527	9635.12
471.632	9564.12
471.738	9264.12
471.843	9246.12
471.949	9162.12
472.054	9030.12
472.16	8948.12
472.265	9016.12
472.371	8855.12
472.476	8829.12
472.582	8882.12
472.687	8688.12
472.793	8565.12
472.898	8630.12
473.003	8637.12
473.109	8434.12
473.214	8412.12
473.32	8443.12
473.425	8521.12
473.53	8377.12
473.636	8286.12
473.741	8463.12
473.847	8346.12
473.952	8328.12
474.057	8375.12
474.163	8315.12
474.268	8226.12
474.373	8414.12
474.478	8257.12
474.584	8281.12
474.689	8427.12
474.794	8395.12
474.9	8621.12
475.005	8194.12
475.11	8597.12
475.215	8273.12
475.321	8475.12
475.426	8531.12
475.531	8452.12
475.636	8408.12
475.741	8453.12
475.846	8647.12
475.952	8680.12
476.057	8618.12
476.162	8639.12
476.267	8672.12
476.372	8981.12
476.477	8689.12
476.582	8822.12
476.687	8723.12
476.793	8883.12
476.898	8910.12
477.003	8905.12
477.108	8983.12
477.213	9014.12
477.318	9288.12
477.423	9393.12
477.528	9608.12
477.633	9665.12
477.738	9782.12
477.843	9757.12
477.948	9982.12
478.053	9998.12
478.158	10048.12
478.263	10092.12
478.368	10194.12
478.473	10502.12
478.578	10543.12
478.682	10706.12
478.787	10637.12
478.892	10615.12
478.997	10607.12
479.102	10622.12
479.207	10616.12
479.312	10740.12
479.417	10874.12
479.521	10806.12
479.626	10933.12
479.731	10849.12
479.836	11020.12
479.941	11354.12
480.045	11490.12
480.15	11764.12
480.255	11856.12
480.36	11874.12
480.465	11746.12
480.569	11738.12
480.674	11407.12
480.779	11173.12
480.883	11102.12
480.988	11183.12
481.093	10773.12
481.197	10862.12
481.302	10734.12
481.407	10736.12
481.511	12223.12
481.616	10804.12
481.721	10705.12
481.825	11008.12
481.93	10697.12
482.035	10650.12
482.139	10762.12
482.244	10774.12
482.348	10820.12
482.453	10887.12
482.557	11159.12
482.662	10906.12
482.767	11000.12
482.871	10991.12
482.976	11231.12
483.08	11331.12
483.185	11361.12
483.289	11372.12
483.394	11288.12
483.498	11519.12
483.603	11478.12
483.707	11552.12
483.811	11702.12
483.916	11843.12
484.02	11817.12
484.125	12062.12
484.229	12162.12
484.333	12396.12
484.438	12264.12
484.542	12431.12
484.647	12431.12
484.751	12648.12
484.855	12677.12
484.96	12838.12
485.064	12865.12
485.168	13069.12
485.273	13168.12
485.377	13269.12
485.481	13475.12
485.585	13426.12
485.69	13503.12
485.794	13526.12
485.898	13497.12
486.002	13398.12
486.107	13407.12
486.211	13501.12
486.315	13622.12
486.419	13564.12
486.524	13723.12
486.628	13638.12
486.732	13573.12
486.836	13649.12
486.94	13780.12
487.044	13646.12
487.148	13590.12
487.253	13516.12
487.357	13595.12
487.461	13766.12
487.565	13634.12
487.669	13771.12
487.773	13627.12
487.877	13779.12
487.981	13929.12
488.085	13618.12
488.189	13611.12
488.293	13794.12
488.397	14165.12
488.501	13727.12
488.605	13725.12
488.709	13598.12
488.813	13580.12
488.917	13538.12
489.021	13653.12
489.125	13917.12
489.229	13617.12
489.333	13986.12
489.437	13837.12
489.541	13951.12
489.645	13751.12
489.749	13834.12
489.853	13822.12
489.956	14042.12
490.06	13951.12
490.164	13720.12
490.268	13781.12
490.372	13872.12
490.476	13787.12
490.579	13851.12
490.683	14564.12
490.787	13964.12
490.891	13787.12
490.995	13899.12
491.098	13802.12
491.202	13703.12
491.306	14076.12
491.41	13849.12
491.513	13761.12
491.617	13806.12
491.721	14103.12
491.824	14104.12
491.928	13851.12
492.032	14162.12
492.136	13769.12
492.239	13855.12
492.343	14195.12
492.446	14380.12
492.55	14062.12
492.654	13897.12
492.757	13998.12
492.861	13919.12
492.965	14012.12
493.068	13963.12
493.172	13952.12
493.275	13979.12
493.379	14137.12
493.482	14210.12
493.586	14207.12
493.689	14350.12
493.793	14205.12
493.896	14396.12
494	14395.12
494.103	14226.12
494.207	14564.12
494.31	14564.12
494.414	14286.12
494.517	14037.12
494.621	14023.12
494.724	13884.12
494.828	13915.12
494.931	13783.12
495.034	13914.12
495.138	14024.12
495.241	13687.12
495.345	14564.12
495.448	13952.12
495.551	13666.12
495.655	13936.12
495.758	13805.12
495.861	13688.12
495.965	13846.12
496.068	13973.12
496.171	14047.12
496.274	14013.12
496.378	14121.12
496.481	14115.12
496.584	14047.12
496.687	14436.12
496.791	14303.12
496.894	14526.12
496.997	14537.12
497.1	14512.12
497.204	14564.12
497.307	14564.12
497.41	14564.12
497.513	14564.12
497.616	14564.12
497.719	14564.12
497.823	14564.12
497.926	14564.12
498.029	14564.12
498.132	14564.12
498.235	14564.12
498.338	14564.12
498.441	14564.12
498.544	14564.12
498.647	14564.12
498.75	14564.12
498.853	14564.12
498.956	14564.12
499.059	14564.12
499.163	14564.12
499.266	14564.12
499.369	14564.12
499.471	14564.12
499.574	14564.12
499.677	14564.12
499.78	14564.12
499.883	14564.12
499.986	14564.12
500.089	14564.12
500.192	14564.12
500.295	14564.12
500.398	14564.12
500.501	14564.12
500.604	14564.12
500.707	14564.12
500.809	14564.12
500.912	14564.12
501.015	14564.12
501.118	14564.12
501.221	14564.12
501.324	14564.12
501.426	14564.12
501.529	14564.12
501.632	14564.12
501.735	14564.12
501.837	14564.12
501.94	14564.12
502.043	14564.12
502.146	14564.12
502.248	14564.12
502.351	14564.12
502.454	14564.12
502.557	14564.12
502.659	14564.12
502.762	14564.12
502.865	14398.12
502.967	14131.12
503.07	13907.12
503.173	13663.12
503.275	13544.12
503.378	13361.12
503.48	13228.12
503.583	13101.12
503.686	13106.12
503.788	13432.12
503.891	13246.12
503.993	13401.12
504.096	13313.12
504.198	13477.12
504.301	13659.12
504.403	13604.12
504.506	13430.12
504.608	12886.12
504.711	12630.12
504.813	12212.12
504.916	11876.12
505.018	11497.12
505.121	11169.12
505.223	11288.12
505.326	10887.12
505.428	10950.12
505.531	10534.12
505.633	10493.12
505.735	10363.12
505.838	10218.12
505.94	10130.12
506.042	10231.12
506.145	9939.12
506.247	10038.12
506.35	9811.12
506.452	9953.12
506.554	9831.12
506.656	9619.12
506.759	9614.12
506.861	9690.12
506.963	9584.12
507.066	9547.12
507.168	9538.12
507.27	9490.12
507.372	9329.12
507.475	9386.12
507.577	9275.12
507.679	9187.12
507.781	9123.12
507.883	9183.12
507.986	8970.12
508.088	9015.12
508.19	9025.12
508.292	9024.12
508.394	8933.12
508.496	8941.12
508.598	8786.12
508.701	8923.12
508.803	8831.12
508.905	8813.12
509.007	8781.12
509.109	8783.12
509.211	8781.12
509.313	8857.12
509.415	8557.12
509.517	8632.12
509.619	8652.12
509.721	8728.12
509.823	8705.12
509.925	8775.12
510.027	8589.12
510.129	8519.12
510.231	8708.12
510.333	8631.12
510.435	8581.12
510.537	8688.12
510.639	8683.12
510.741	8626.12
510.843	8616.12
510.945	8504.12
511.047	8657.12
511.148	8568.12
511.25	8615.12
511.352	8749.12
511.454	8477.12
511.556	8827.12
511.658	8627.12
511.76	8710.12
511.861	8770.12
511.963	8503.12
512.065	8569.12
512.167	8471.12
512.268	8915.12
512.37	8819.12
512.472	8690.12
512.574	8716.12
512.676	8801.12
512.777	8633.12
512.879	8559.12
512.981	8633.12
513.082	8710.12
513.184	8723.12
513.286	9295.12
513.387	8938.12
513.489	8959.12
513.591	8844.12
513.692	8938.12
513.794	8888.12
513.896	8760.12
513.997	8883.12
514.099	8819.12
514.2	9084.12
514.302	9186.12
514.404	9102.12
514.505	9159.12
514.607	9284.12
514.708	9191.12
514.81	9283.12
514.911	9462.12
515.013	9519.12
515.114	9459.12
515.216	9537.12
515.317	9743.12
515.419	9630.12
515.52	9995.12
515.622	9867.12
515.723	10094.12
515.825	10355.12
515.926	10297.12
516.027	10479.12
516.129	10411.12
516.23	10767.12
516.332	11131.12
516.433	11168.12
516.534	11377.12
516.636	11590.12
516.737	11798.12
516.838	13354.12
516.94	12737.12
517.041	12855.12
517.142	13325.12
517.244	13513.12
517.345	13712.12
517.446	13866.12
517.547	14214.12
517.649	13945.12
517.75	13891.12
517.851	13906.12
517.952	14018.12
518.054	13568.12
518.155	13431.12
518.256	12960.12
518.357	12838.12
518.458	12445.12
518.56	12269.12
518.661	12037.12
518.762	11769.12
518.863	11691.12
518.964	11743.12
519.065	11226.12
519.166	11111.12
519.268	11056.12
519.369	11219.12
519.47	10749.12
519.571	10845.12
519.672	10591.12
519.773	10558.12
519.874	10452.12
519.975	10554.12
520.076	10438.12
520.177	10376.12
520.278	10330.12
520.379	10339.12
520.48	10323.12
520.581	10251.12
520.682	10212.12
520.783	10207.12
520.884	10364.12
520.985	10139.12
521.086	10086.12
521.187	10118.12
521.288	10141.12
521.389	10081.12
521.489	10010.12
521.59	10043.12
521.691	9966.12
521.792	9968.12
521.893	10156.12
521.994	10044.12
522.095	9942.12
522.195	9960.12
522.296	9960.12
522.397	9876.12
522.498	9897.12
522.599	9970.12
522.699	9898.12
522.8	9770.12
522.901	9959.12
523.002	9922.12
523.102	9963.12
523.203	9955.12
523.304	10045.12
523.405	9782.12
523.505	10036.12
523.606	9999.12
523.707	9918.12
523.807	9957.12
523.908	9972.12
524.009	9913.12
524.109	9997.12
524.21	9857.12
524.31	9997.12
524.411	10063.12
524.512	10154.12
524.612	10057.12
524.713	10081.12
524.813	9983.12
524.914	10224.12
525.014	14564.12
525.115	10420.12
525.216	9974.12
525.316	9990.12
525.417	10041.12
525.517	10140.12
525.618	9986.12
525.718	10104.12
525.819	10071.12
525.919	10051.12
526.019	9981.12
526.12	10043.12
526.22	10046.12
526.321	9996.12
526.421	10040.12
526.522	9999.12
526.622	9938.12
526.722	9979.12
526.823	10089.12
526.923	9940.12
527.023	10187.12
527.124	10201.12
527.224	10094.12
527.324	9921.12
527.425	10049.12
527.525	10002.12
527.625	9943.12
527.726	10095.12
527.826	10229.12
527.926	10066.12
528.026	10069.12
528.127	10087.12
528.227	10019.12
528.327	10162.12
528.427	10091.12
528.528	10055.12
528.628	10121.12
528.728	10100.12
528.828	10086.12
528.928	10058.12
529.029	10022.12
529.129	10030.12
529.229	10184.12
529.329	9945.12
529.429	10102.12
529.529	10041.12
529.629	9974.12
529.729	9950.12
529.829	10091.12
529.93	9890.12
530.03	9963.12
530.13	9890.12
530.23	9970.12
530.33	10034.12
530.43	9855.12
530.53	9897.12
530.63	9854.12
530.73	9908.12
530.83	9662.12
530.93	9810.12
531.03	9876.12
531.13	9836.12
531.23	9895.12
531.33	10012.12
531.429	9905.12
531.529	9910.12
531.629	9912.12
531.729	9661.12
531.829	9815.12
531.929	9778.12
532.029	9757.12
532.129	9590.12
532.229	9878.12
532.328	9825.12
532.428	9667.12
532.528	9657.12
532.628	9548.12
532.728	9614.12
532.827	9448.12
532.927	9710.12
533.027	9523.12
533.127	9572.12
533.227	9465.12
533.326	9423.12
533.426	9275.12
533.526	9559.12
533.625	9659.12
533.725	9704.12
533.825	9373.12
533.924	9241.12
534.024	9225.12
534.124	9183.12
534.223	9269.12
534.323	9546.12
534.423	9190.12
534.522	9102.12
