Data from 21g_HRC06701__110__354.txt Node

Date: Thu Apr 18 02:09:29 CDT 2024
User: Estudiantes 2
Spectrometer: HR+C0670
Trigger mode: 4
Integration Time (sec): 1.000000E0
Scans to average: 1
Electric dark correction enabled: true
Nonlinearity correction enabled: false
Boxcar width: 0
XAxis mode: Wavelengths
Number of Pixels in Spectrum: 2048
>>>>>Begin Spectral Data<<<<<
407.81	-154.12
407.921	-154.12
408.032	-154.12
408.143	-139.12
408.254	-117.12
408.365	31.88
408.476	293.88
408.587	-32.12
408.699	-5.12
408.81	-36.12
408.921	-55.12
409.032	0.88
409.143	19.88
409.254	37.88
409.365	114.88
409.476	-60.12
409.587	-6.12
409.698	105.88
409.809	69.88
409.92	-33.12
410.031	-2.12
410.142	77.88
410.253	30.88
410.364	27.88
410.475	1332.88
410.585	6310.88
410.696	6702.88
410.807	6626.88
410.918	6626.88
411.029	6699.88
411.14	6806.88
411.251	6833.88
411.362	6791.88
411.472	6885.88
411.583	6829.88
411.694	7062.88
411.805	7035.88
411.916	7142.88
412.026	7031.88
412.137	7055.88
412.248	6963.88
412.359	6947.88
412.47	6738.88
412.58	6666.88
412.691	6910.88
412.802	6811.88
412.912	6731.88
413.023	6840.88
413.134	6712.88
413.245	6738.88
413.355	6719.88
413.466	6738.88
413.577	6670.88
413.687	6824.88
413.798	6550.88
413.909	6728.88
414.019	6807.88
414.13	6878.88
414.24	6847.88
414.351	7050.88
414.462	7195.88
414.572	7064.88
414.683	6943.88
414.793	6940.88
414.904	7175.88
415.014	6869.88
415.125	6836.88
415.235	6890.88
415.346	7020.88
415.456	7048.88
415.567	6782.88
415.677	6792.88
415.788	6932.88
415.898	6764.88
416.009	6751.88
416.119	6799.88
416.23	6859.88
416.34	6800.88
416.45	6860.88
416.561	7684.88
416.671	6869.88
416.782	6888.88
416.892	7138.88
417.002	7026.88
417.113	7222.88
417.223	6990.88
417.333	7101.88
417.444	7099.88
417.554	7326.88
417.664	7376.88
417.775	7178.88
417.885	7379.88
417.995	7546.88
418.106	7759.88
418.216	7510.88
418.326	7794.88
418.436	7751.88
418.547	7987.88
418.657	7886.88
418.767	8157.88
418.877	8048.88
418.987	8211.88
419.098	8130.88
419.208	8148.88
419.318	8130.88
419.428	8151.88
419.538	7959.88
419.648	8120.88
419.759	8013.88
419.869	8025.88
419.979	8030.88
420.089	8126.88
420.199	8103.88
420.309	8146.88
420.419	8119.88
420.529	8257.88
420.639	8532.88
420.749	8239.88
420.859	8446.88
420.969	8293.88
421.079	8471.88
421.189	8273.88
421.299	8160.88
421.409	8274.88
421.519	8307.88
421.629	8624.88
421.739	8459.88
421.849	8520.88
421.959	8654.88
422.069	8593.88
422.179	8778.88
422.289	8802.88
422.399	9116.88
422.509	9149.88
422.619	11479.88
422.729	9433.88
422.838	9241.88
422.948	9392.88
423.058	9485.88
423.168	9618.88
423.278	9784.88
423.388	9824.88
423.498	10018.88
423.607	9994.88
423.717	10336.88
423.827	10398.88
423.937	10078.88
424.046	10263.88
424.156	10387.88
424.266	10161.88
424.376	10445.88
424.485	10271.88
424.595	10260.88
424.705	10368.88
424.815	10423.88
424.924	10766.88
425.034	10401.88
425.144	10317.88
425.253	10262.88
425.363	10574.88
425.473	10586.88
425.582	10307.88
425.692	10550.88
425.801	10448.88
425.911	10564.88
426.021	10604.88
426.13	10634.88
426.24	10801.88
426.349	10722.88
426.459	10744.88
426.568	10782.88
426.678	10753.88
426.787	10854.88
426.897	10910.88
427.006	10930.88
427.116	10956.88
427.225	10953.88
427.335	11195.88
427.444	10927.88
427.554	11106.88
427.663	11359.88
427.773	11234.88
427.882	11322.88
427.992	11264.88
428.101	11387.88
428.21	11214.88
428.32	11594.88
428.429	11470.88
428.539	11838.88
428.648	11601.88
428.757	11595.88
428.867	11694.88
428.976	12149.88
429.085	11946.88
429.195	11753.88
429.304	11788.88
429.413	12028.88
429.523	12084.88
429.632	12152.88
429.741	12048.88
429.85	12080.88
429.96	12367.88
430.069	12215.88
430.178	12330.88
430.287	12576.88
430.397	12402.88
430.506	12456.88
430.615	12575.88
430.724	12593.88
430.833	12669.88
430.943	12619.88
431.052	12865.88
431.161	12909.88
431.27	13196.88
431.379	13185.88
431.488	13964.88
431.597	13594.88
431.706	13864.88
431.816	13721.88
431.925	13783.88
432.034	13549.88
432.143	13745.88
432.252	13662.88
432.361	13655.88
432.47	13679.88
432.579	13752.88
432.688	13484.88
432.797	13653.88
432.906	13454.88
433.015	13752.88
433.124	14015.88
433.233	13841.88
433.342	13821.88
433.451	13871.88
433.56	13742.88
433.669	13940.88
433.778	13885.88
433.886	14209.88
433.995	14220.88
434.104	14452.88
434.213	14452.88
434.322	14563.88
434.431	14563.88
434.54	14563.88
434.649	14563.88
434.757	14563.88
434.866	14563.88
434.975	14563.88
435.084	14563.88
435.193	14563.88
435.301	14563.88
435.41	14358.88
435.519	14377.88
435.628	13582.88
435.737	13539.88
435.845	13242.88
435.954	13033.88
436.063	13077.88
436.171	13349.88
436.28	13059.88
436.389	13410.88
436.498	13135.88
436.606	13094.88
436.715	13317.88
436.823	12834.88
436.932	12692.88
437.041	12665.88
437.149	12558.88
437.258	12345.88
437.367	11961.88
437.475	12265.88
437.584	12554.88
437.692	12153.88
437.801	13568.88
437.91	12087.88
438.018	11998.88
438.127	11886.88
438.235	11975.88
438.344	12101.88
438.452	11949.88
438.561	11911.88
438.669	11854.88
438.778	11869.88
438.886	11930.88
438.995	11767.88
439.103	11870.88
439.212	12057.88
439.32	12145.88
439.428	11916.88
439.537	12042.88
439.645	12326.88
439.754	12344.88
439.862	12039.88
439.97	12261.88
440.079	12435.88
440.187	12272.88
440.295	12601.88
440.404	12380.88
440.512	12422.88
440.62	12520.88
440.729	12838.88
440.837	12934.88
440.945	14046.88
441.054	13435.88
441.162	13576.88
441.27	13881.88
441.378	14316.88
441.487	14289.88
441.595	14563.88
441.703	14216.88
441.811	13842.88
441.92	13645.88
442.028	13481.88
442.136	13684.88
442.244	13418.88
442.352	13425.88
442.461	13248.88
442.569	13352.88
442.677	13456.88
442.785	13420.88
442.893	13345.88
443.001	13328.88
443.109	13337.88
443.217	13450.88
443.325	13292.88
443.434	14296.88
443.542	14212.88
443.65	13774.88
443.758	13978.88
443.866	14292.88
443.974	14563.88
444.082	14563.88
444.19	14563.88
444.298	14563.88
444.406	14563.88
444.514	14563.88
444.622	14563.88
444.73	14563.88
444.838	14563.88
444.946	14563.88
445.054	14563.88
445.161	14563.88
445.269	14287.88
445.377	14290.88
445.485	14002.88
445.593	13761.88
445.701	13714.88
445.809	13360.88
445.917	13392.88
446.025	13311.88
446.132	13410.88
446.24	13485.88
446.348	13475.88
446.456	13034.88
446.564	13190.88
446.671	13330.88
446.779	13122.88
446.887	13130.88
446.995	12861.88
447.102	13022.88
447.21	12785.88
447.318	12756.88
447.426	12802.88
447.533	13058.88
447.641	14110.88
447.749	12874.88
447.856	12748.88
447.964	12715.88
448.072	12862.88
448.179	12832.88
448.287	12736.88
448.395	12795.88
448.502	12655.88
448.61	12916.88
448.718	12712.88
448.825	12938.88
448.933	12809.88
449.04	12842.88
449.148	13042.88
449.256	12984.88
449.363	12923.88
449.471	13266.88
449.578	13322.88
449.686	13128.88
449.793	13408.88
449.901	13374.88
450.008	13590.88
450.116	13897.88
450.223	13949.88
450.331	14203.88
450.438	14323.88
450.546	14238.88
450.653	14481.88
450.76	14563.88
450.868	14563.88
450.975	14563.88
451.083	14563.88
451.19	14563.88
451.297	14563.88
451.405	14563.88
451.512	14563.88
451.619	14563.88
451.727	14563.88
451.834	14563.88
451.941	14563.88
452.049	14563.88
452.156	14563.88
452.263	14563.88
452.371	14563.88
452.478	14563.88
452.585	14563.88
452.692	14563.88
452.8	14563.88
452.907	14563.88
453.014	14563.88
453.121	14563.88
453.229	14563.88
453.336	14563.88
453.443	14563.88
453.55	14563.88
453.657	14563.88
453.765	14563.88
453.872	14563.88
453.979	14563.88
454.086	14563.88
454.193	14563.88
454.3	14563.88
454.407	14563.88
454.514	14563.88
454.621	14563.88
454.729	14563.88
454.836	14563.88
454.943	14563.88
455.05	14563.88
455.157	14563.88
455.264	14563.88
455.371	14563.88
455.478	14563.88
455.585	14563.88
455.692	14563.88
455.799	14563.88
455.906	14563.88
456.013	14563.88
456.12	14563.88
456.227	14563.88
456.334	14563.88
456.44	14563.88
456.547	14563.88
456.654	14563.88
456.761	14563.88
456.868	14563.88
456.975	14563.88
457.082	14563.88
457.189	14563.88
457.296	14563.88
457.402	14563.88
457.509	14563.88
457.616	14563.88
457.723	14563.88
457.83	14563.88
457.936	14563.88
458.043	14563.88
458.15	14563.88
458.257	14563.88
458.363	14563.88
458.47	14563.88
458.577	14563.88
458.684	14563.88
458.79	14563.88
458.897	14563.88
459.004	14563.88
459.11	14563.88
459.217	14563.88
459.324	14563.88
459.43	14563.88
459.537	14563.88
459.644	14563.88
459.75	14563.88
459.857	14563.88
459.964	14563.88
460.07	14563.88
460.177	14563.88
460.283	14563.88
460.39	14563.88
460.496	14563.88
460.603	14563.88
460.71	14563.88
460.816	14563.88
460.923	14563.88
461.029	14563.88
461.136	14563.88
461.242	14563.88
461.349	14563.88
461.455	14563.88
461.562	14563.88
461.668	14563.88
461.774	14563.88
461.881	14563.88
461.987	14563.88
462.094	14563.88
462.2	14563.88
462.307	14563.88
462.413	14563.88
462.519	14563.88
462.626	14563.88
462.732	14563.88
462.838	14563.88
462.945	14563.88
463.051	14563.88
463.157	14563.88
463.264	14563.88
463.37	14563.88
463.476	14563.88
463.583	14563.88
463.689	14563.88
463.795	14563.88
463.901	14563.88
464.008	14563.88
464.114	14563.88
464.22	14563.88
464.326	14563.88
464.433	14563.88
464.539	14563.88
464.645	14563.88
464.751	14563.88
464.857	14563.88
464.963	14563.88
465.07	14563.88
465.176	14563.88
465.282	14563.88
465.388	14563.88
465.494	14563.88
465.6	14563.88
465.706	14563.88
465.812	14563.88
465.918	14563.88
466.024	14563.88
466.131	14563.88
466.237	14563.88
466.343	14563.88
466.449	14563.88
466.555	14563.88
466.661	14563.88
466.767	14563.88
466.873	14563.88
466.979	14563.88
467.085	14563.88
467.191	14563.88
467.296	14563.88
467.402	14563.88
467.508	14563.88
467.614	14563.88
467.72	14563.88
467.826	14563.88
467.932	14563.88
468.038	14563.88
468.144	14563.88
468.25	14563.88
468.355	14563.88
468.461	14563.88
468.567	14563.88
468.673	14563.88
468.779	14563.88
468.885	14563.88
468.99	14563.88
469.096	14563.88
469.202	14563.88
469.308	14563.88
469.413	14563.88
469.519	14563.88
469.625	14563.88
469.731	14563.88
469.836	14563.88
469.942	14563.88
470.048	14563.88
470.153	14563.88
470.259	14563.88
470.365	14563.88
470.47	14563.88
470.576	14563.88
470.682	14563.88
470.787	14563.88
470.893	14563.88
470.999	14563.88
471.104	14563.88
471.21	14563.88
471.315	14563.88
471.421	14563.88
471.527	14563.88
471.632	14563.88
471.738	14563.88
471.843	14563.88
471.949	14458.88
472.054	14390.88
472.16	14196.88
472.265	14151.88
472.371	13871.88
472.476	13862.88
472.582	13994.88
472.687	13779.88
472.793	13628.88
472.898	13417.88
473.003	13672.88
473.109	13303.88
473.214	13281.88
473.32	13393.88
473.425	13310.88
473.53	13168.88
473.636	13037.88
473.741	13246.88
473.847	13178.88
473.952	13152.88
474.057	13111.88
474.163	13138.88
474.268	13095.88
474.373	13182.88
474.478	13054.88
474.584	12983.88
474.689	13140.88
474.794	13186.88
474.9	13432.88
475.005	13082.88
475.11	13464.88
475.215	13129.88
475.321	13135.88
475.426	13388.88
475.531	13320.88
475.636	13141.88
475.741	13181.88
475.846	13478.88
475.952	13588.88
476.057	13466.88
476.162	13598.88
476.267	13720.88
476.372	13858.88
476.477	13622.88
476.582	13775.88
476.687	13729.88
476.793	13815.88
476.898	13963.88
477.003	14002.88
477.108	14371.88
477.213	14159.88
477.318	14365.88
477.423	14563.88
477.528	14563.88
477.633	14563.88
477.738	14563.88
477.843	14563.88
477.948	14563.88
478.053	14563.88
478.158	14563.88
478.263	14563.88
478.368	14563.88
478.473	14563.88
478.578	14563.88
478.682	14563.88
478.787	14563.88
478.892	14563.88
478.997	14563.88
479.102	14563.88
479.207	14563.88
479.312	14563.88
479.417	14563.88
479.521	14563.88
479.626	14563.88
479.731	14563.88
479.836	14563.88
479.941	14563.88
480.045	14563.88
480.15	14563.88
480.255	14563.88
480.36	14563.88
480.465	14563.88
480.569	14563.88
480.674	14563.88
480.779	14563.88
480.883	14563.88
480.988	14563.88
481.093	14563.88
481.197	14563.88
481.302	14563.88
481.407	14563.88
481.511	14563.88
481.616	14563.88
481.721	14563.88
481.825	14563.88
481.93	14563.88
482.035	14563.88
482.139	14563.88
482.244	14563.88
482.348	14563.88
482.453	14563.88
482.557	14563.88
482.662	14563.88
482.767	14563.88
482.871	14563.88
482.976	14563.88
483.08	14563.88
483.185	14563.88
483.289	14563.88
483.394	14563.88
483.498	14563.88
483.603	14563.88
483.707	14563.88
483.811	14563.88
483.916	14563.88
484.02	14563.88
484.125	14563.88
484.229	14563.88
484.333	14563.88
484.438	14563.88
484.542	14563.88
484.647	14563.88
484.751	14563.88
484.855	14563.88
484.96	14563.88
485.064	14563.88
485.168	14563.88
485.273	14563.88
485.377	14563.88
485.481	14563.88
485.585	14563.88
485.69	14563.88
485.794	14563.88
485.898	14563.88
486.002	14563.88
486.107	14563.88
486.211	14563.88
486.315	14563.88
486.419	14563.88
486.524	14563.88
486.628	14563.88
486.732	14563.88
486.836	14563.88
486.94	14563.88
487.044	14563.88
487.148	14563.88
487.253	14563.88
487.357	14563.88
487.461	14563.88
487.565	14563.88
487.669	14563.88
487.773	14563.88
487.877	14563.88
487.981	14563.88
488.085	14563.88
488.189	14563.88
488.293	14563.88
488.397	14563.88
488.501	14563.88
488.605	14563.88
488.709	14563.88
488.813	14563.88
488.917	14563.88
489.021	14563.88
489.125	14563.88
489.229	14563.88
489.333	14563.88
489.437	14563.88
489.541	14563.88
489.645	14563.88
489.749	14563.88
489.853	14563.88
489.956	14563.88
490.06	14563.88
490.164	14563.88
490.268	14563.88
490.372	14563.88
490.476	14563.88
490.579	14563.88
490.683	14563.88
490.787	14563.88
490.891	14563.88
490.995	14563.88
491.098	14563.88
491.202	14563.88
491.306	14563.88
491.41	14563.88
491.513	14563.88
491.617	14563.88
491.721	14563.88
491.824	14563.88
491.928	14563.88
492.032	14563.88
492.136	14563.88
492.239	14563.88
492.343	14563.88
492.446	14563.88
492.55	14563.88
492.654	14563.88
492.757	14563.88
492.861	14563.88
492.965	14563.88
493.068	14563.88
493.172	14563.88
493.275	14563.88
493.379	14563.88
493.482	14563.88
493.586	14563.88
493.689	14563.88
493.793	14563.88
493.896	14563.88
494	14563.88
494.103	14563.88
494.207	14563.88
494.31	14563.88
494.414	14563.88
494.517	14563.88
494.621	14563.88
494.724	14563.88
494.828	14563.88
494.931	14563.88
495.034	14563.88
495.138	14563.88
495.241	14563.88
495.345	14563.88
495.448	14563.88
495.551	14563.88
495.655	14563.88
495.758	14563.88
495.861	14563.88
495.965	14563.88
496.068	14563.88
496.171	14563.88
496.274	14563.88
496.378	14563.88
496.481	14563.88
496.584	14563.88
496.687	14563.88
496.791	14563.88
496.894	14563.88
496.997	14563.88
497.1	14563.88
497.204	14563.88
497.307	14563.88
497.41	14563.88
497.513	14563.88
497.616	14563.88
497.719	14563.88
497.823	14563.88
497.926	14563.88
498.029	14563.88
498.132	14563.88
498.235	14563.88
498.338	14563.88
498.441	14563.88
498.544	14563.88
498.647	14563.88
498.75	14563.88
498.853	14563.88
498.956	14563.88
499.059	14563.88
499.163	14563.88
499.266	14563.88
499.369	14563.88
499.471	14563.88
499.574	14563.88
499.677	14563.88
499.78	14563.88
499.883	14563.88
499.986	14563.88
500.089	14563.88
500.192	14563.88
500.295	14563.88
500.398	14563.88
500.501	14563.88
500.604	14563.88
500.707	14563.88
500.809	14563.88
500.912	14563.88
501.015	14563.88
501.118	14563.88
501.221	14563.88
501.324	14563.88
501.426	14563.88
501.529	14563.88
501.632	14563.88
501.735	14563.88
501.837	14563.88
501.94	14563.88
502.043	14563.88
502.146	14563.88
502.248	14563.88
502.351	14563.88
502.454	14563.88
502.557	14563.88
502.659	14563.88
502.762	14563.88
502.865	14563.88
502.967	14563.88
503.07	14563.88
503.173	14563.88
503.275	14563.88
503.378	14563.88
503.48	14563.88
503.583	14563.88
503.686	14563.88
503.788	14563.88
503.891	14563.88
503.993	14563.88
504.096	14563.88
504.198	14563.88
504.301	14563.88
504.403	14563.88
504.506	14563.88
504.608	14563.88
504.711	14563.88
504.813	14563.88
504.916	14563.88
505.018	14563.88
505.121	14563.88
505.223	14563.88
505.326	14563.88
505.428	14563.88
505.531	14563.88
505.633	14563.88
505.735	14563.88
505.838	14563.88
505.94	14563.88
506.042	14563.88
506.145	14563.88
506.247	14563.88
506.35	14563.88
506.452	14563.88
506.554	14563.88
506.656	14563.88
506.759	14563.88
506.861	14563.88
506.963	14563.88
507.066	14563.88
507.168	14563.88
507.27	14563.88
507.372	14562.88
507.475	14516.88
507.577	14563.88
507.679	14340.88
507.781	14066.88
507.883	14218.88
507.986	13857.88
508.088	14050.88
508.19	13977.88
508.292	13970.88
508.394	13768.88
508.496	13756.88
508.598	13767.88
508.701	13786.88
508.803	13779.88
508.905	13579.88
509.007	13606.88
509.109	13658.88
509.211	13517.88
509.313	13607.88
509.415	13488.88
509.517	13516.88
509.619	13331.88
509.721	13451.88
509.823	13388.88
509.925	13538.88
510.027	13303.88
510.129	13357.88
510.231	13443.88
510.333	13246.88
510.435	13385.88
510.537	13419.88
510.639	13354.88
510.741	13562.88
510.843	13304.88
510.945	13197.88
511.047	13316.88
511.148	13262.88
511.25	13150.88
511.352	13273.88
511.454	13214.88
511.556	13317.88
511.658	13373.88
511.76	13464.88
511.861	13716.88
511.963	13357.88
512.065	13176.88
512.167	13210.88
512.268	13579.88
512.37	13498.88
512.472	13495.88
512.574	13422.88
512.676	13581.88
512.777	13403.88
512.879	13358.88
512.981	13481.88
513.082	13451.88
513.184	13599.88
513.286	14087.88
513.387	13666.88
513.489	13791.88
513.591	13645.88
513.692	13974.88
513.794	13933.88
513.896	13733.88
513.997	13733.88
514.099	13784.88
514.2	14015.88
514.302	14059.88
514.404	14136.88
514.505	14174.88
514.607	14134.88
514.708	14399.88
514.81	14473.88
514.911	14532.88
515.013	14563.88
515.114	14563.88
515.216	14563.88
515.317	14563.88
515.419	14563.88
515.52	14563.88
515.622	14563.88
515.723	14563.88
515.825	14563.88
515.926	14563.88
516.027	14563.88
516.129	14563.88
516.23	14563.88
516.332	14563.88
516.433	14563.88
516.534	14563.88
516.636	14563.88
516.737	14563.88
516.838	14563.88
516.94	14563.88
517.041	14563.88
517.142	14563.88
517.244	14563.88
517.345	14563.88
517.446	14563.88
517.547	14563.88
517.649	14563.88
517.75	14563.88
517.851	14563.88
517.952	14563.88
518.054	14563.88
518.155	14563.88
518.256	14563.88
518.357	14563.88
518.458	14563.88
518.56	14563.88
518.661	14563.88
518.762	14563.88
518.863	14563.88
518.964	14563.88
519.065	14563.88
519.166	14563.88
519.268	14563.88
519.369	14563.88
519.47	14563.88
519.571	14563.88
519.672	14563.88
519.773	14563.88
519.874	14563.88
519.975	14563.88
520.076	14563.88
520.177	14563.88
520.278	14563.88
520.379	14563.88
520.48	14563.88
520.581	14563.88
520.682	14563.88
520.783	14563.88
520.884	14563.88
520.985	14563.88
521.086	14563.88
521.187	14563.88
521.288	14563.88
521.389	14563.88
521.489	14563.88
521.59	14563.88
521.691	14563.88
521.792	14563.88
521.893	14563.88
521.994	14563.88
522.095	14563.88
522.195	14563.88
522.296	14563.88
522.397	14563.88
522.498	14563.88
522.599	14563.88
522.699	14563.88
522.8	14563.88
522.901	14563.88
523.002	14563.88
523.102	14563.88
523.203	14563.88
523.304	14563.88
523.405	14563.88
523.505	14563.88
523.606	14563.88
523.707	14563.88
523.807	14563.88
523.908	14563.88
524.009	14563.88
524.109	14563.88
524.21	14563.88
524.31	14563.88
524.411	14563.88
524.512	14563.88
524.612	14563.88
524.713	14563.88
524.813	14563.88
524.914	14563.88
525.014	14563.88
525.115	14563.88
525.216	14563.88
525.316	14563.88
525.417	14563.88
525.517	14563.88
525.618	14563.88
525.718	14563.88
525.819	14563.88
525.919	14563.88
526.019	14563.88
526.12	14563.88
526.22	14563.88
526.321	14563.88
526.421	14563.88
526.522	14563.88
526.622	14563.88
526.722	14563.88
526.823	14563.88
526.923	14563.88
527.023	14563.88
527.124	14563.88
527.224	14563.88
527.324	14563.88
527.425	14563.88
527.525	14563.88
527.625	14563.88
527.726	14563.88
527.826	14563.88
527.926	14563.88
528.026	14563.88
528.127	14563.88
528.227	14563.88
528.327	14563.88
528.427	14563.88
528.528	14563.88
528.628	14563.88
528.728	14563.88
528.828	14563.88
528.928	14563.88
529.029	14563.88
529.129	14563.88
529.229	14563.88
529.329	14563.88
529.429	14563.88
529.529	14563.88
529.629	14563.88
529.729	14563.88
529.829	14563.88
529.93	14563.88
530.03	14563.88
530.13	14563.88
530.23	14563.88
530.33	14563.88
530.43	14563.88
530.53	14563.88
530.63	14563.88
530.73	14563.88
530.83	14563.88
530.93	14563.88
531.03	14563.88
531.13	14563.88
531.23	14563.88
531.33	14563.88
531.429	14563.88
