Data from 21g_HRC06701__69__313.txt Node

Date: Thu Apr 18 02:08:48 CDT 2024
User: Estudiantes 2
Spectrometer: HR+C0670
Trigger mode: 4
Integration Time (sec): 1.000000E0
Scans to average: 1
Electric dark correction enabled: true
Nonlinearity correction enabled: false
Boxcar width: 0
XAxis mode: Wavelengths
Number of Pixels in Spectrum: 2048
>>>>>Begin Spectral Data<<<<<
407.81	-135.06
407.921	-135.06
408.032	-135.06
408.143	-82.06
408.254	-148.06
408.365	-2.06
408.476	278.94
408.587	-18.06
408.699	-59.06
408.81	-27.06
408.921	-36.06
409.032	-43.06
409.143	40.94
409.254	57.94
409.365	88.94
409.476	-19.06
409.587	45.94
409.698	56.94
409.809	63.94
409.92	-6.06
410.031	-43.06
410.142	6.94
410.253	0.94
410.364	33.94
410.475	1996.94
410.585	9600.94
410.696	10317.94
410.807	10004.94
410.918	10146.94
411.029	10241.94
411.14	10236.94
411.251	10381.94
411.362	10477.94
411.472	10507.94
411.583	10214.94
411.694	10732.94
411.805	10716.94
411.916	10825.94
412.026	10712.94
412.137	10701.94
412.248	10616.94
412.359	10537.94
412.47	10236.94
412.58	10098.94
412.691	10327.94
412.802	10209.94
412.912	10299.94
413.023	10317.94
413.134	10274.94
413.245	10176.94
413.355	10383.94
413.466	10303.94
413.577	10233.94
413.687	10188.94
413.798	10028.94
413.909	10373.94
414.019	10381.94
414.13	10428.94
414.24	10408.94
414.351	10579.94
414.462	10866.94
414.572	10620.94
414.683	10615.94
414.793	10644.94
414.904	10802.94
415.014	10511.94
415.125	10386.94
415.235	10462.94
415.346	10740.94
415.456	10559.94
415.567	10478.94
415.677	10327.94
415.788	10418.94
415.898	10222.94
416.009	10324.94
416.119	10357.94
416.23	10464.94
416.34	10351.94
416.45	10483.94
416.561	11091.94
416.671	10507.94
416.782	10572.94
416.892	10702.94
417.002	10710.94
417.113	10933.94
417.223	10665.94
417.333	10784.94
417.444	10954.94
417.554	11123.94
417.664	11147.94
417.775	10976.94
417.885	11165.94
417.995	11217.94
418.106	11918.94
418.216	11515.94
418.326	11700.94
418.436	11909.94
418.547	12107.94
418.657	11990.94
418.767	12210.94
418.877	12202.94
418.987	12427.94
419.098	12290.94
419.208	12254.94
419.318	12332.94
419.428	12214.94
419.538	12017.94
419.648	12434.94
419.759	12228.94
419.869	12172.94
419.979	12243.94
420.089	12192.94
420.199	12175.94
420.309	12339.94
420.419	12248.94
420.529	12353.94
420.639	12622.94
420.749	12614.94
420.859	12479.94
420.969	12752.94
421.079	12731.94
421.189	12400.94
421.299	12362.94
421.409	12450.94
421.519	12691.94
421.629	12825.94
421.739	12851.94
421.849	13053.94
421.959	13165.94
422.069	13093.94
422.179	13213.94
422.289	13458.94
422.399	13694.94
422.509	13942.94
422.619	14553.94
422.729	14268.94
422.838	14070.94
422.948	14129.94
423.058	14371.94
423.168	14514.94
423.278	14553.94
423.388	14553.94
423.498	14553.94
423.607	14553.94
423.717	14553.94
423.827	14553.94
423.937	14553.94
424.046	14553.94
424.156	14553.94
424.266	14553.94
424.376	14553.94
424.485	14553.94
424.595	14553.94
424.705	14553.94
424.815	14553.94
424.924	14553.94
425.034	14553.94
425.144	14553.94
425.253	14553.94
425.363	14553.94
425.473	14553.94
425.582	14553.94
425.692	14553.94
425.801	14553.94
425.911	14553.94
426.021	14553.94
426.13	14553.94
426.24	14553.94
426.349	14553.94
426.459	14553.94
426.568	14553.94
426.678	14553.94
426.787	14553.94
426.897	14553.94
427.006	14553.94
427.116	14553.94
427.225	14553.94
427.335	14553.94
427.444	14553.94
427.554	14553.94
427.663	14553.94
427.773	14553.94
427.882	14553.94
427.992	14553.94
428.101	14553.94
428.21	14553.94
428.32	14553.94
428.429	14553.94
428.539	14553.94
428.648	14553.94
428.757	14553.94
428.867	14553.94
428.976	14553.94
429.085	14553.94
429.195	14553.94
429.304	14553.94
429.413	14553.94
429.523	14553.94
429.632	14553.94
429.741	14553.94
429.85	14553.94
429.96	14553.94
430.069	14553.94
430.178	14553.94
430.287	14553.94
430.397	14553.94
430.506	14553.94
430.615	14553.94
430.724	14553.94
430.833	14553.94
430.943	14553.94
431.052	14553.94
431.161	14553.94
431.27	14553.94
431.379	14553.94
431.488	14553.94
431.597	14553.94
431.706	14553.94
431.816	14553.94
431.925	14553.94
432.034	14553.94
432.143	14553.94
432.252	14553.94
432.361	14553.94
432.47	14553.94
432.579	14553.94
432.688	14553.94
432.797	14553.94
432.906	14553.94
433.015	14553.94
433.124	14553.94
433.233	14553.94
433.342	14553.94
433.451	14553.94
433.56	14553.94
433.669	14553.94
433.778	14553.94
433.886	14553.94
433.995	14553.94
434.104	14553.94
434.213	14553.94
434.322	14553.94
434.431	14553.94
434.54	14553.94
434.649	14553.94
434.757	14553.94
434.866	14553.94
434.975	14553.94
435.084	14553.94
435.193	14553.94
435.301	14553.94
435.41	14553.94
435.519	14553.94
435.628	14553.94
435.737	14553.94
435.845	14553.94
435.954	14553.94
436.063	14553.94
436.171	14553.94
436.28	14553.94
436.389	14553.94
436.498	14553.94
436.606	14553.94
436.715	14553.94
436.823	14553.94
436.932	14553.94
437.041	14553.94
437.149	14553.94
437.258	14553.94
437.367	14553.94
437.475	14553.94
437.584	14553.94
437.692	14553.94
437.801	14553.94
437.91	14553.94
438.018	14553.94
438.127	14553.94
438.235	14553.94
438.344	14553.94
438.452	14553.94
438.561	14553.94
438.669	14553.94
438.778	14553.94
438.886	14553.94
438.995	14553.94
439.103	14553.94
439.212	14553.94
439.32	14553.94
439.428	14553.94
439.537	14553.94
439.645	14553.94
439.754	14553.94
439.862	14553.94
439.97	14553.94
440.079	14553.94
440.187	14553.94
440.295	14553.94
440.404	14553.94
440.512	14553.94
440.62	14553.94
440.729	14553.94
440.837	14553.94
440.945	14553.94
441.054	14553.94
441.162	14553.94
441.27	14553.94
441.378	14553.94
441.487	14553.94
441.595	14553.94
441.703	14553.94
441.811	14553.94
441.92	14553.94
442.028	14553.94
442.136	14553.94
442.244	14553.94
442.352	14553.94
442.461	14553.94
442.569	14553.94
442.677	14553.94
442.785	14553.94
442.893	14553.94
443.001	14553.94
443.109	14553.94
443.217	14553.94
443.325	14553.94
443.434	14553.94
443.542	14553.94
443.65	14553.94
443.758	14553.94
443.866	14553.94
443.974	14553.94
444.082	14553.94
444.19	14553.94
444.298	14553.94
444.406	14553.94
444.514	14553.94
444.622	14553.94
444.73	14553.94
444.838	14553.94
444.946	14553.94
445.054	14553.94
445.161	14553.94
445.269	14553.94
445.377	14553.94
445.485	14553.94
445.593	14553.94
445.701	14553.94
445.809	14553.94
445.917	14553.94
446.025	14553.94
446.132	14553.94
446.24	14553.94
446.348	14553.94
446.456	14553.94
446.564	14553.94
446.671	14553.94
446.779	14553.94
446.887	14553.94
446.995	14553.94
447.102	14553.94
447.21	14553.94
447.318	14553.94
447.426	14553.94
447.533	14553.94
447.641	14553.94
447.749	14553.94
447.856	14553.94
447.964	14553.94
448.072	14553.94
448.179	14553.94
448.287	14553.94
448.395	14553.94
448.502	14553.94
448.61	14553.94
448.718	14553.94
448.825	14553.94
448.933	14553.94
449.04	14553.94
449.148	14553.94
449.256	14553.94
449.363	14553.94
449.471	14553.94
449.578	14553.94
449.686	14553.94
449.793	14553.94
449.901	14553.94
450.008	14553.94
450.116	14553.94
450.223	14553.94
450.331	14553.94
450.438	14553.94
450.546	14553.94
450.653	14553.94
450.76	14553.94
450.868	14553.94
450.975	14553.94
451.083	14553.94
451.19	14553.94
451.297	14553.94
451.405	14553.94
451.512	14553.94
451.619	14553.94
451.727	14553.94
451.834	14553.94
451.941	14553.94
452.049	14553.94
452.156	14553.94
452.263	14553.94
452.371	14553.94
452.478	14553.94
452.585	14553.94
452.692	14553.94
452.8	14553.94
452.907	14553.94
453.014	14553.94
453.121	14553.94
453.229	14553.94
453.336	14553.94
453.443	14553.94
453.55	14553.94
453.657	14553.94
453.765	14553.94
453.872	14553.94
453.979	14553.94
454.086	14553.94
454.193	14553.94
454.3	14553.94
454.407	14553.94
454.514	14553.94
454.621	14553.94
454.729	14553.94
454.836	14553.94
454.943	14553.94
455.05	14553.94
455.157	14553.94
455.264	14553.94
455.371	14553.94
455.478	14553.94
455.585	14553.94
455.692	14553.94
455.799	14553.94
455.906	14553.94
456.013	14553.94
456.12	14553.94
456.227	14553.94
456.334	14553.94
456.44	14553.94
456.547	14553.94
456.654	14553.94
456.761	14553.94
456.868	14553.94
456.975	14553.94
457.082	14553.94
457.189	14553.94
457.296	14553.94
457.402	14553.94
457.509	14553.94
457.616	14553.94
457.723	14553.94
457.83	14553.94
457.936	14553.94
458.043	14553.94
458.15	14553.94
458.257	14553.94
458.363	14553.94
458.47	14553.94
458.577	14553.94
458.684	14553.94
458.79	14553.94
458.897	14553.94
459.004	14553.94
459.11	14553.94
459.217	14553.94
459.324	14553.94
459.43	14553.94
459.537	14553.94
459.644	14553.94
459.75	14553.94
459.857	14553.94
459.964	14553.94
460.07	14553.94
460.177	14553.94
460.283	14553.94
460.39	14553.94
460.496	14553.94
460.603	14553.94
460.71	14553.94
460.816	14553.94
460.923	14553.94
461.029	14553.94
461.136	14553.94
461.242	14553.94
461.349	14553.94
461.455	14553.94
461.562	14553.94
461.668	14553.94
461.774	14553.94
461.881	14553.94
461.987	14553.94
462.094	14553.94
462.2	14553.94
462.307	14553.94
462.413	14553.94
462.519	14553.94
462.626	14553.94
462.732	14553.94
462.838	14553.94
462.945	14553.94
463.051	14553.94
463.157	14553.94
463.264	14553.94
463.37	14553.94
463.476	14553.94
463.583	14553.94
463.689	14553.94
463.795	14553.94
463.901	14553.94
464.008	14553.94
464.114	14553.94
464.22	14553.94
464.326	14553.94
464.433	14553.94
464.539	14553.94
464.645	14553.94
464.751	14553.94
464.857	14553.94
464.963	14553.94
465.07	14553.94
465.176	14553.94
465.282	14553.94
465.388	14553.94
465.494	14553.94
465.6	14553.94
465.706	14553.94
465.812	14553.94
465.918	14553.94
466.024	14553.94
466.131	14553.94
466.237	14553.94
466.343	14553.94
466.449	14553.94
466.555	14553.94
466.661	14553.94
466.767	14553.94
466.873	14553.94
466.979	14553.94
467.085	14553.94
467.191	14553.94
467.296	14553.94
467.402	14553.94
467.508	14553.94
467.614	14553.94
467.72	14553.94
467.826	14553.94
467.932	14553.94
468.038	14553.94
468.144	14553.94
468.25	14553.94
468.355	14553.94
468.461	14553.94
468.567	14553.94
468.673	14553.94
468.779	14553.94
468.885	14553.94
468.99	14553.94
469.096	14553.94
469.202	14553.94
469.308	14553.94
469.413	14553.94
469.519	14553.94
469.625	14553.94
469.731	14553.94
469.836	14553.94
469.942	14553.94
470.048	14553.94
470.153	14553.94
470.259	14553.94
470.365	14553.94
470.47	14553.94
470.576	14553.94
470.682	14553.94
470.787	14553.94
470.893	14553.94
470.999	14553.94
471.104	14553.94
471.21	14553.94
471.315	14553.94
471.421	14553.94
471.527	14553.94
471.632	14553.94
471.738	14553.94
471.843	14553.94
471.949	14553.94
472.054	14553.94
472.16	14553.94
472.265	14553.94
472.371	14553.94
472.476	14553.94
472.582	14553.94
472.687	14553.94
472.793	14553.94
472.898	14553.94
473.003	14553.94
473.109	14553.94
473.214	14553.94
473.32	14553.94
473.425	14553.94
473.53	14553.94
473.636	14553.94
473.741	14553.94
473.847	14553.94
473.952	14553.94
474.057	14553.94
474.163	14553.94
474.268	14553.94
474.373	14553.94
474.478	14553.94
474.584	14553.94
474.689	14553.94
474.794	14553.94
474.9	14553.94
475.005	14553.94
475.11	14553.94
475.215	14553.94
475.321	14553.94
475.426	14553.94
475.531	14553.94
475.636	14553.94
475.741	14553.94
475.846	14553.94
475.952	14553.94
476.057	14553.94
476.162	14553.94
476.267	14553.94
476.372	14553.94
476.477	14553.94
476.582	14553.94
476.687	14553.94
476.793	14553.94
476.898	14553.94
477.003	14553.94
477.108	14553.94
477.213	14553.94
477.318	14553.94
477.423	14553.94
477.528	14553.94
477.633	14553.94
477.738	14553.94
477.843	14553.94
477.948	14553.94
478.053	14553.94
478.158	14553.94
478.263	14553.94
478.368	14553.94
478.473	14553.94
478.578	14553.94
478.682	14553.94
478.787	14553.94
478.892	14553.94
478.997	14553.94
479.102	14553.94
479.207	14553.94
479.312	14553.94
479.417	14553.94
479.521	14553.94
479.626	14553.94
479.731	14553.94
479.836	14553.94
479.941	14553.94
480.045	14553.94
480.15	14553.94
480.255	14553.94
480.36	14553.94
480.465	14553.94
480.569	14553.94
480.674	14553.94
480.779	14553.94
480.883	14553.94
480.988	14553.94
481.093	14553.94
481.197	14553.94
481.302	14553.94
481.407	14553.94
481.511	14553.94
481.616	14553.94
481.721	14553.94
481.825	14553.94
481.93	14553.94
482.035	14553.94
482.139	14553.94
482.244	14553.94
482.348	14553.94
482.453	14553.94
482.557	14553.94
482.662	14553.94
482.767	14553.94
482.871	14553.94
482.976	14553.94
483.08	14553.94
483.185	14553.94
483.289	14553.94
483.394	14553.94
483.498	14553.94
483.603	14553.94
483.707	14553.94
483.811	14553.94
483.916	14553.94
484.02	14553.94
484.125	14553.94
484.229	14553.94
484.333	14553.94
484.438	14553.94
484.542	14553.94
484.647	14553.94
484.751	14553.94
484.855	14553.94
484.96	14553.94
485.064	14553.94
485.168	14553.94
485.273	14553.94
485.377	14553.94
485.481	14553.94
485.585	14553.94
485.69	14553.94
485.794	14553.94
485.898	14553.94
486.002	14553.94
486.107	14553.94
486.211	14553.94
486.315	14553.94
486.419	14553.94
486.524	14553.94
486.628	14553.94
486.732	14553.94
486.836	14553.94
486.94	14553.94
487.044	14553.94
487.148	14553.94
487.253	14553.94
487.357	14553.94
487.461	14553.94
487.565	14553.94
487.669	14553.94
487.773	14553.94
487.877	14553.94
487.981	14553.94
488.085	14553.94
488.189	14553.94
488.293	14553.94
488.397	14553.94
488.501	14553.94
488.605	14553.94
488.709	14553.94
488.813	14553.94
488.917	14553.94
489.021	14553.94
489.125	14553.94
489.229	14553.94
489.333	14553.94
489.437	14553.94
489.541	14553.94
489.645	14553.94
489.749	14553.94
489.853	14553.94
489.956	14553.94
490.06	14553.94
490.164	14553.94
490.268	14553.94
490.372	14553.94
490.476	14553.94
490.579	14553.94
490.683	14553.94
490.787	14553.94
490.891	14553.94
490.995	14553.94
491.098	14553.94
491.202	14553.94
491.306	14553.94
491.41	14553.94
491.513	14553.94
491.617	14553.94
491.721	14553.94
491.824	14553.94
491.928	14553.94
492.032	14553.94
492.136	14553.94
492.239	14553.94
492.343	14553.94
492.446	14553.94
492.55	14553.94
492.654	14553.94
492.757	14553.94
492.861	14553.94
492.965	14553.94
493.068	14553.94
493.172	14553.94
493.275	14553.94
493.379	14553.94
493.482	14553.94
493.586	14553.94
493.689	14553.94
493.793	14553.94
493.896	14553.94
494	14553.94
494.103	14553.94
494.207	14553.94
494.31	14553.94
494.414	14553.94
494.517	14553.94
494.621	14553.94
494.724	14553.94
494.828	14553.94
494.931	14553.94
495.034	14553.94
495.138	14553.94
495.241	14553.94
495.345	14553.94
495.448	14553.94
495.551	14553.94
495.655	14553.94
495.758	14553.94
495.861	14553.94
495.965	14553.94
496.068	14553.94
496.171	14553.94
496.274	14553.94
496.378	14553.94
496.481	14553.94
496.584	14553.94
496.687	14553.94
496.791	14553.94
496.894	14553.94
496.997	14553.94
497.1	14553.94
497.204	14553.94
497.307	14553.94
497.41	14553.94
497.513	14553.94
497.616	14553.94
497.719	14553.94
497.823	14553.94
497.926	14553.94
498.029	14553.94
498.132	14553.94
498.235	14553.94
498.338	14553.94
498.441	14553.94
498.544	14553.94
498.647	14553.94
498.75	14553.94
498.853	14553.94
498.956	14553.94
499.059	14553.94
499.163	14553.94
499.266	14553.94
499.369	14553.94
499.471	14553.94
499.574	14553.94
499.677	14553.94
499.78	14553.94
499.883	14553.94
499.986	14553.94
500.089	14553.94
500.192	14553.94
500.295	14553.94
500.398	14553.94
500.501	14553.94
500.604	14553.94
500.707	14553.94
500.809	14553.94
500.912	14553.94
501.015	14553.94
501.118	14553.94
501.221	14553.94
501.324	14553.94
501.426	14553.94
501.529	14553.94
501.632	14553.94
501.735	14553.94
501.837	14553.94
501.94	14553.94
502.043	14553.94
502.146	14553.94
502.248	14553.94
502.351	14553.94
502.454	14553.94
502.557	14553.94
502.659	14553.94
502.762	14553.94
502.865	14553.94
502.967	14553.94
503.07	14553.94
503.173	14553.94
503.275	14553.94
503.378	14553.94
503.48	14553.94
503.583	14553.94
503.686	14553.94
503.788	14553.94
503.891	14553.94
503.993	14553.94
504.096	14553.94
504.198	14553.94
504.301	14553.94
504.403	14553.94
504.506	14553.94
504.608	14553.94
504.711	14553.94
504.813	14553.94
504.916	14553.94
505.018	14553.94
505.121	14553.94
505.223	14553.94
505.326	14553.94
505.428	14553.94
505.531	14553.94
505.633	14553.94
505.735	14553.94
505.838	14553.94
505.94	14553.94
506.042	14553.94
506.145	14553.94
506.247	14553.94
506.35	14553.94
506.452	14553.94
506.554	14553.94
506.656	14553.94
506.759	14553.94
506.861	14553.94
506.963	14553.94
507.066	14553.94
507.168	14553.94
507.27	14553.94
507.372	14553.94
507.475	14553.94
507.577	14553.94
507.679	14553.94
507.781	14553.94
507.883	14553.94
507.986	14553.94
508.088	14553.94
508.19	14553.94
508.292	14553.94
508.394	14553.94
508.496	14553.94
508.598	14553.94
508.701	14553.94
508.803	14553.94
508.905	14553.94
509.007	14553.94
509.109	14553.94
509.211	14553.94
509.313	14553.94
509.415	14553.94
509.517	14553.94
509.619	14553.94
509.721	14553.94
509.823	14553.94
509.925	14553.94
510.027	14553.94
510.129	14553.94
510.231	14553.94
510.333	14553.94
510.435	14553.94
510.537	14553.94
510.639	14553.94
510.741	14553.94
510.843	14553.94
510.945	14553.94
511.047	14553.94
511.148	14553.94
511.25	14553.94
511.352	14553.94
511.454	14553.94
511.556	14553.94
511.658	14553.94
511.76	14553.94
511.861	14553.94
511.963	14553.94
512.065	14553.94
512.167	14553.94
512.268	14553.94
512.37	14553.94
512.472	14553.94
512.574	14553.94
512.676	14553.94
512.777	14553.94
512.879	14553.94
512.981	14553.94
513.082	14553.94
513.184	14553.94
513.286	14553.94
513.387	14553.94
513.489	14553.94
513.591	14553.94
513.692	14553.94
513.794	14553.94
513.896	14553.94
513.997	14553.94
514.099	14553.94
514.2	14553.94
514.302	14553.94
514.404	14553.94
514.505	14553.94
514.607	14553.94
514.708	14553.94
514.81	14553.94
514.911	14553.94
515.013	14553.94
515.114	14553.94
515.216	14553.94
515.317	14553.94
515.419	14553.94
515.52	14553.94
515.622	14553.94
515.723	14553.94
515.825	14553.94
515.926	14553.94
516.027	14553.94
516.129	14553.94
516.23	14553.94
516.332	14553.94
516.433	14553.94
516.534	14553.94
516.636	14553.94
516.737	14553.94
516.838	14553.94
516.94	14553.94
517.041	14553.94
517.142	14553.94
517.244	14553.94
517.345	14553.94
517.446	14553.94
517.547	14553.94
517.649	14553.94
517.75	14553.94
517.851	14553.94
517.952	14553.94
518.054	14553.94
518.155	14553.94
518.256	14553.94
518.357	14553.94
518.458	14553.94
518.56	14553.94
518.661	14553.94
518.762	14553.94
518.863	14553.94
518.964	14553.94
519.065	14553.94
519.166	14553.94
519.268	14553.94
519.369	14553.94
519.47	14553.94
519.571	14553.94
519.672	14553.94
519.773	14553.94
519.874	14553.94
519.975	14553.94
520.076	14553.94
520.177	14553.94
520.278	14553.94
520.379	14553.94
520.48	14553.94
520.581	14553.94
520.682	14553.94
520.783	14553.94
520.884	14553.94
520.985	14553.94
521.086	14553.94
521.187	14553.94
521.288	14553.94
521.389	14553.94
521.489	14553.94
521.59	14553.94
521.691	14553.94
521.792	14553.94
521.893	14553.94
521.994	14553.94
522.095	14553.94
522.195	14553.94
522.296	14553.94
522.397	14553.94
522.498	14553.94
522.599	14553.94
522.699	14553.94
522.8	14553.94
522.901	14553.94
523.002	14553.94
523.102	14553.94
523.203	14553.94
523.304	14553.94
523.405	14553.94
523.505	14553.94
523.606	14553.94
523.707	14553.94
523.807	14553.94
523.908	14553.94
524.009	14553.94
524.109	14553.94
524.21	14553.94
524.31	14553.94
524.411	14553.94
524.512	14553.94
524.612	14553.94
524.713	14553.94
524.813	14553.94
524.914	14553.94
525.014	14553.94
525.115	14553.94
525.216	14553.94
525.316	14553.94
525.417	14553.94
525.517	14553.94
525.618	14553.94
525.718	14553.94
525.819	14553.94
525.919	14553.94
526.019	14553.94
526.12	14553.94
526.22	14553.94
526.321	14553.94
526.421	14553.94
526.522	14553.94
526.622	14553.94
526.722	14553.94
526.823	14553.94
526.923	14553.94
527.023	14553.94
527.124	14553.94
527.224	14553.94
527.324	14553.94
527.425	14553.94
527.525	14553.94
527.625	14553.94
527.726	14553.94
527.826	14553.94
527.926	14553.94
528.026	14553.94
528.127	14553.94
528.227	14553.94
528.327	14553.94
528.427	14553.94
528.528	14553.94
528.628	14553.94
528.728	14553.94
528.828	14553.94
528.928	14553.94
529.029	14553.94
529.129	14553.94
529.229	14553.94
529.329	14553.94
529.429	14553.94
529.529	14553.94
529.629	14553.94
529.729	14553.94
529.829	14553.94
529.93	14553.94
530.03	14553.94
530.13	14553.94
530.23	14553.94
530.33	14553.94
530.43	14553.94
530.53	14553.94
530.63	14553.94
530.73	14553.94
