Data from 7g_HRC06701__49__171.txt Node

Date: Thu Apr 18 01:50:38 CDT 2024
User: Estudiantes 2
Spectrometer: HR+C0670
Trigger mode: 4
Integration Time (sec): 1.000000E0
Scans to average: 1
Electric dark correction enabled: true
Nonlinearity correction enabled: false
Boxcar width: 0
XAxis mode: Wavelengths
Number of Pixels in Spectrum: 2048
>>>>>Begin Spectral Data<<<<<
407.81	-144
407.921	-144
408.032	-144
408.143	-93
408.254	-117
408.365	24
408.476	296
408.587	-45
408.699	-32
408.81	2
408.921	-47
409.032	-50
409.143	40
409.254	44
409.365	63
409.476	-28
409.587	57
409.698	30
409.809	61
409.92	25
410.031	-48
410.142	45
410.253	51
410.364	50
410.475	1670
410.585	8234
410.696	8777
410.807	8525
410.918	8553
411.029	8792
411.14	8640
411.251	8705
411.362	8783
411.472	8865
411.583	8696
411.694	8910
411.805	8917
411.916	8949
412.026	8865
412.137	8927
412.248	8899
412.359	8961
412.47	8765
412.58	8689
412.691	8794
412.802	8801
412.912	8599
413.023	8742
413.134	8810
413.245	8690
413.355	8724
413.466	8769
413.577	8733
413.687	8803
413.798	8490
413.909	8784
414.019	8836
414.13	8837
414.24	8747
414.351	9022
414.462	9125
414.572	8896
414.683	8924
414.793	8891
414.904	9122
415.014	8832
415.125	8727
415.235	8746
415.346	9000
415.456	8892
415.567	8792
415.677	8731
415.788	8890
415.898	8810
416.009	8712
416.119	8747
416.23	8747
416.34	8648
416.45	8751
416.561	9360
416.671	8769
416.782	8821
416.892	8960
417.002	8936
417.113	9065
417.223	8935
417.333	8894
417.444	9018
417.554	9143
417.664	9154
417.775	9156
417.885	9417
417.995	9243
418.106	9611
418.216	9382
418.326	9685
418.436	9618
418.547	9699
418.657	9688
418.767	9924
418.877	9777
418.987	9904
419.098	9864
419.208	10040
419.318	10002
419.428	10026
419.538	9837
419.648	10074
419.759	10001
419.869	9855
419.979	10147
420.089	10086
420.199	10093
420.309	10022
420.419	10018
420.529	10060
420.639	10399
420.749	10277
420.859	10342
420.969	10352
421.079	10476
421.189	10246
421.299	10241
421.409	10396
421.519	10339
421.629	10666
421.739	10654
421.849	10609
421.959	10632
422.069	10777
422.179	10806
422.289	10923
422.399	11204
422.509	11281
422.619	14079
422.729	11446
422.838	11313
422.948	11348
423.058	11399
423.168	11496
423.278	11574
423.388	11875
423.498	12095
423.607	11781
423.717	12201
423.827	12161
423.937	12073
424.046	12104
424.156	12366
424.266	12371
424.376	12624
424.485	12562
424.595	12538
424.705	12596
424.815	12536
424.924	13115
425.034	12707
425.144	12575
425.253	12529
425.363	12798
425.473	12864
425.582	12786
425.692	13053
425.801	12871
425.911	13178
426.021	13129
426.13	13441
426.24	13394
426.349	13616
426.459	13431
426.568	13542
426.678	13634
426.787	13626
426.897	13550
427.006	13664
427.116	13898
427.225	13948
427.335	14159
427.444	14058
427.554	13951
427.663	14271
427.773	14330
427.882	14386
427.992	14323
428.101	14541
428.21	14470
428.32	14541
428.429	14496
428.539	14541
428.648	14541
428.757	14541
428.867	14541
428.976	14541
429.085	14541
429.195	14541
429.304	14541
429.413	14541
429.523	14541
429.632	14541
429.741	14541
429.85	14541
429.96	14541
430.069	14541
430.178	14541
430.287	14541
430.397	14541
430.506	14541
430.615	14541
430.724	14541
430.833	14541
430.943	14541
431.052	14541
431.161	14541
431.27	14541
431.379	14541
431.488	14541
431.597	14541
431.706	14541
431.816	14541
431.925	14541
432.034	14541
432.143	14541
432.252	14541
432.361	14541
432.47	14541
432.579	14541
432.688	14541
432.797	14541
432.906	14541
433.015	14541
433.124	14541
433.233	14541
433.342	14541
433.451	14541
433.56	14541
433.669	14541
433.778	14541
433.886	14541
433.995	14541
434.104	14541
434.213	14541
434.322	14541
434.431	14541
434.54	14541
434.649	14541
434.757	14541
434.866	14541
434.975	14541
435.084	14541
435.193	14541
435.301	14541
435.41	14541
435.519	14541
435.628	14541
435.737	14541
435.845	14541
435.954	14541
436.063	14541
436.171	14541
436.28	14541
436.389	14541
436.498	14541
436.606	14541
436.715	14541
436.823	14541
436.932	14541
437.041	14541
437.149	14541
437.258	14541
437.367	14541
437.475	14541
437.584	14541
437.692	14541
437.801	14541
437.91	14541
438.018	14541
438.127	14541
438.235	14541
438.344	14541
438.452	14541
438.561	14541
438.669	14541
438.778	14535
438.886	14541
438.995	14541
439.103	14541
439.212	14541
439.32	14541
439.428	14541
439.537	14541
439.645	14541
439.754	14541
439.862	14541
439.97	14541
440.079	14541
440.187	14541
440.295	14541
440.404	14541
440.512	14541
440.62	14541
440.729	14541
440.837	14541
440.945	14541
441.054	14541
441.162	14541
441.27	14541
441.378	14541
441.487	14541
441.595	14541
441.703	14541
441.811	14541
441.92	14541
442.028	14541
442.136	14541
442.244	14541
442.352	14541
442.461	14541
442.569	14541
442.677	14541
442.785	14541
442.893	14541
443.001	14541
443.109	14541
443.217	14541
443.325	14541
443.434	14541
443.542	14541
443.65	14541
443.758	14541
443.866	14541
443.974	14541
444.082	14541
444.19	14541
444.298	14541
444.406	14541
444.514	14541
444.622	14541
444.73	14541
444.838	14541
444.946	14541
445.054	14541
445.161	14541
445.269	14541
445.377	14541
445.485	14541
445.593	14541
445.701	14541
445.809	14541
445.917	14541
446.025	14541
446.132	14541
446.24	14541
446.348	14541
446.456	14541
446.564	14541
446.671	14541
446.779	14541
446.887	14541
446.995	14541
447.102	14541
447.21	14541
447.318	14541
447.426	14541
447.533	14541
447.641	14541
447.749	14541
447.856	14541
447.964	14541
448.072	14541
448.179	14541
448.287	14541
448.395	14541
448.502	14541
448.61	14541
448.718	14541
448.825	14541
448.933	14541
449.04	14541
449.148	14541
449.256	14541
449.363	14541
449.471	14541
449.578	14541
449.686	14541
449.793	14541
449.901	14541
450.008	14541
450.116	14541
450.223	14541
450.331	14541
450.438	14541
450.546	14541
450.653	14541
450.76	14541
450.868	14541
450.975	14541
451.083	14541
451.19	14541
451.297	14541
451.405	14541
451.512	14541
451.619	14541
451.727	14541
451.834	14541
451.941	14541
452.049	14541
452.156	14541
452.263	14541
452.371	14541
452.478	14541
452.585	14541
452.692	14541
452.8	14541
452.907	14541
453.014	14541
453.121	14541
453.229	14541
453.336	14541
453.443	14541
453.55	14541
453.657	14541
453.765	14541
453.872	14541
453.979	14541
454.086	14541
454.193	14541
454.3	14541
454.407	14541
454.514	14541
454.621	14541
454.729	14541
454.836	14541
454.943	14541
455.05	14541
455.157	14541
455.264	14541
455.371	14541
455.478	14541
455.585	14541
455.692	14541
455.799	14541
455.906	14541
456.013	14541
456.12	14541
456.227	14541
456.334	14541
456.44	14541
456.547	14541
456.654	14541
456.761	14541
456.868	14541
456.975	14541
457.082	14541
457.189	14541
457.296	14541
457.402	14541
457.509	14541
457.616	14541
457.723	14541
457.83	14541
457.936	14541
458.043	14541
458.15	14541
458.257	14541
458.363	14541
458.47	14541
458.577	14541
458.684	14541
458.79	14541
458.897	14541
459.004	14541
459.11	14541
459.217	14541
459.324	14541
459.43	14541
459.537	14541
459.644	14541
459.75	14541
459.857	14541
459.964	14541
460.07	14541
460.177	14541
460.283	14541
460.39	14541
460.496	14541
460.603	14541
460.71	14541
460.816	14541
460.923	14541
461.029	14541
461.136	14541
461.242	14541
461.349	14541
461.455	14541
461.562	14541
461.668	14541
461.774	14541
461.881	14541
461.987	14541
462.094	14541
462.2	14541
462.307	14541
462.413	14541
462.519	14541
462.626	14541
462.732	14541
462.838	14541
462.945	14541
463.051	14541
463.157	14541
463.264	14541
463.37	14541
463.476	14541
463.583	14541
463.689	14541
463.795	14541
463.901	14541
464.008	14541
464.114	14541
464.22	14541
464.326	14541
464.433	14541
464.539	14541
464.645	14541
464.751	14541
464.857	14541
464.963	14541
465.07	14541
465.176	14541
465.282	14541
465.388	14541
465.494	14541
465.6	14541
465.706	14541
465.812	14541
465.918	14541
466.024	14541
466.131	14541
466.237	14541
466.343	14541
466.449	14541
466.555	14541
466.661	14541
466.767	14541
466.873	14541
466.979	14541
467.085	14541
467.191	14541
467.296	14541
467.402	14541
467.508	14541
467.614	14541
467.72	14541
467.826	14541
467.932	14541
468.038	14541
468.144	14541
468.25	14541
468.355	14541
468.461	14541
468.567	14541
468.673	14541
468.779	14541
468.885	14541
468.99	14541
469.096	14541
469.202	14541
469.308	14541
469.413	14541
469.519	14541
469.625	14541
469.731	14541
469.836	14541
469.942	14541
470.048	14541
470.153	14541
470.259	14541
470.365	14541
470.47	14541
470.576	14541
470.682	14541
470.787	14541
470.893	14541
470.999	14541
471.104	14541
471.21	14541
471.315	14541
471.421	14541
471.527	14541
471.632	14541
471.738	14541
471.843	14541
471.949	14541
472.054	14541
472.16	14541
472.265	14541
472.371	14541
472.476	14541
472.582	14541
472.687	14541
472.793	14541
472.898	14541
473.003	14541
473.109	14541
473.214	14541
473.32	14541
473.425	14541
473.53	14541
473.636	14541
473.741	14541
473.847	14541
473.952	14541
474.057	14541
474.163	14541
474.268	14541
474.373	14541
474.478	14541
474.584	14541
474.689	14541
474.794	14541
474.9	14541
475.005	14541
475.11	14541
475.215	14541
475.321	14541
475.426	14541
475.531	14541
475.636	14541
475.741	14541
475.846	14541
475.952	14541
476.057	14541
476.162	14541
476.267	14541
476.372	14541
476.477	14541
476.582	14541
476.687	14541
476.793	14541
476.898	14541
477.003	14541
477.108	14541
477.213	14541
477.318	14541
477.423	14541
477.528	14541
477.633	14541
477.738	14541
477.843	14541
477.948	14541
478.053	14541
478.158	14541
478.263	14541
478.368	14541
478.473	14541
478.578	14541
478.682	14541
478.787	14541
478.892	14541
478.997	14541
479.102	14541
479.207	14541
479.312	14541
479.417	14541
479.521	14541
479.626	14541
479.731	14541
479.836	14541
479.941	14541
480.045	14541
480.15	14541
480.255	14541
480.36	14541
480.465	14541
480.569	14541
480.674	14541
480.779	14541
480.883	14541
480.988	14541
481.093	14541
481.197	14541
481.302	14541
481.407	14541
481.511	14541
481.616	14541
481.721	14541
481.825	14541
481.93	14541
482.035	14541
482.139	14541
482.244	14541
482.348	14541
482.453	14541
482.557	14541
482.662	14541
482.767	14541
482.871	14541
482.976	14541
483.08	14541
483.185	14541
483.289	14541
483.394	14541
483.498	14541
483.603	14541
483.707	14541
483.811	14541
483.916	14541
484.02	14541
484.125	14541
484.229	14541
484.333	14541
484.438	14541
484.542	14541
484.647	14541
484.751	14541
484.855	14541
484.96	14541
485.064	14541
485.168	14541
485.273	14541
485.377	14541
485.481	14541
485.585	14541
485.69	14541
485.794	14541
485.898	14541
486.002	14541
486.107	14541
486.211	14541
486.315	14541
486.419	14541
486.524	14541
486.628	14541
486.732	14541
486.836	14541
486.94	14541
487.044	14541
487.148	14541
487.253	14541
487.357	14541
487.461	14541
487.565	14541
487.669	14541
487.773	14541
487.877	14541
487.981	14541
488.085	14541
488.189	14541
488.293	14541
488.397	14541
488.501	14541
488.605	14541
488.709	14541
488.813	14541
488.917	14541
489.021	14541
489.125	14541
489.229	14541
489.333	14541
489.437	14541
489.541	14541
489.645	14541
489.749	14541
489.853	14541
489.956	14541
490.06	14541
490.164	14541
490.268	14541
490.372	14541
490.476	14541
490.579	14541
490.683	14541
490.787	14541
490.891	14541
490.995	14541
491.098	14541
491.202	14541
491.306	14541
491.41	14541
491.513	14541
491.617	14541
491.721	14541
491.824	14541
491.928	14541
492.032	14541
492.136	14541
492.239	14541
492.343	14541
492.446	14541
492.55	14541
492.654	14541
492.757	14541
492.861	14541
492.965	14541
493.068	14541
493.172	14541
493.275	14541
493.379	14541
493.482	14541
493.586	14541
493.689	14541
493.793	14541
493.896	14541
494	14541
494.103	14541
494.207	14541
494.31	14541
494.414	14541
494.517	14541
494.621	14541
494.724	14541
494.828	14541
494.931	14541
495.034	14541
495.138	14541
495.241	14541
495.345	14541
495.448	14541
495.551	14541
495.655	14541
495.758	14541
495.861	14541
495.965	14541
496.068	14541
496.171	14541
496.274	14541
496.378	14541
496.481	14541
496.584	14541
496.687	14541
496.791	14541
496.894	14541
496.997	14541
497.1	14541
497.204	14541
497.307	14541
497.41	14541
497.513	14541
497.616	14541
497.719	14541
497.823	14541
497.926	14541
498.029	14541
498.132	14541
498.235	14541
498.338	14541
498.441	14541
498.544	14541
498.647	14541
498.75	14541
498.853	14541
498.956	14541
499.059	14541
499.163	14541
499.266	14541
499.369	14541
499.471	14541
499.574	14541
499.677	14541
499.78	14541
499.883	14541
499.986	14541
500.089	14541
500.192	14541
500.295	14541
500.398	14541
500.501	14541
500.604	14541
500.707	14541
500.809	14541
500.912	14541
501.015	14541
501.118	14541
501.221	14541
501.324	14541
501.426	14541
501.529	14541
501.632	14541
501.735	14541
501.837	14541
501.94	14541
502.043	14541
502.146	14541
502.248	14541
502.351	14541
502.454	14541
502.557	14541
502.659	14541
502.762	14541
502.865	14541
502.967	14541
503.07	14541
503.173	14541
503.275	14541
503.378	14541
503.48	14541
503.583	14541
503.686	14541
503.788	14541
503.891	14541
503.993	14541
504.096	14541
504.198	14541
504.301	14541
504.403	14541
504.506	14541
504.608	14541
504.711	14541
504.813	14541
504.916	14541
505.018	14541
505.121	14541
505.223	14541
505.326	14541
505.428	14541
505.531	14541
505.633	14541
505.735	14541
505.838	14541
505.94	14541
506.042	14541
506.145	14541
506.247	14541
506.35	14541
506.452	14541
506.554	14541
506.656	14541
506.759	14541
506.861	14541
506.963	14541
507.066	14541
507.168	14541
507.27	14541
507.372	14541
507.475	14541
507.577	14541
507.679	14541
507.781	14541
507.883	14541
507.986	14541
508.088	14541
508.19	14541
508.292	14541
508.394	14541
508.496	14541
508.598	14541
508.701	14541
508.803	14541
508.905	14541
509.007	14541
509.109	14541
509.211	14541
509.313	14541
509.415	14541
509.517	14541
509.619	14541
509.721	14541
509.823	14541
509.925	14541
510.027	14541
510.129	14541
510.231	14541
510.333	14541
510.435	14541
510.537	14541
510.639	14541
510.741	14541
510.843	14541
510.945	14541
511.047	14541
511.148	14541
511.25	14541
511.352	14541
511.454	14541
511.556	14541
511.658	14541
511.76	14541
511.861	14541
511.963	14541
512.065	14541
512.167	14541
512.268	14541
512.37	14541
512.472	14541
512.574	14541
512.676	14541
512.777	14541
512.879	14541
512.981	14541
513.082	14541
513.184	14541
513.286	14541
513.387	14541
513.489	14541
513.591	14541
513.692	14541
513.794	14541
513.896	14541
513.997	14541
514.099	14541
514.2	14541
514.302	14541
514.404	14541
514.505	14541
514.607	14541
514.708	14541
514.81	14541
514.911	14541
515.013	14541
515.114	14541
515.216	14541
515.317	14541
515.419	14541
515.52	14541
515.622	14541
515.723	14541
515.825	14541
515.926	14541
516.027	14541
516.129	14541
516.23	14541
516.332	14541
516.433	14541
516.534	14541
516.636	14541
516.737	14541
516.838	14541
516.94	14541
517.041	14541
517.142	14541
517.244	14541
517.345	14541
517.446	14541
517.547	14541
517.649	14541
517.75	14541
517.851	14541
517.952	14541
518.054	14541
518.155	14541
518.256	14541
518.357	14541
518.458	14541
518.56	14541
518.661	14541
518.762	14541
518.863	14541
518.964	14541
519.065	14541
519.166	14541
519.268	14541
519.369	14541
519.47	14541
519.571	14541
519.672	14541
519.773	14541
519.874	14541
519.975	14541
520.076	14541
520.177	14541
520.278	14541
520.379	14541
520.48	14541
520.581	14541
520.682	14541
520.783	14541
520.884	14541
520.985	14541
521.086	14541
521.187	14541
521.288	14541
521.389	14541
521.489	14541
521.59	14541
521.691	14541
521.792	14541
521.893	14541
521.994	14541
522.095	14541
522.195	14541
522.296	14541
522.397	14541
522.498	14541
522.599	14541
522.699	14541
522.8	14541
522.901	14541
523.002	14541
523.102	14541
523.203	14541
523.304	14541
523.405	14541
523.505	14541
523.606	14541
523.707	14541
523.807	14541
523.908	14541
524.009	14541
524.109	14541
524.21	14541
524.31	14541
524.411	14541
524.512	14541
524.612	14541
524.713	14541
524.813	14541
524.914	14541
525.014	14541
525.115	14541
525.216	14541
525.316	14541
525.417	14541
525.517	14541
525.618	14541
525.718	14541
525.819	14541
525.919	14541
526.019	14541
526.12	14541
526.22	14541
526.321	14541
526.421	14541
526.522	14541
526.622	14541
526.722	14541
526.823	14541
526.923	14541
527.023	14541
527.124	14541
527.224	14541
527.324	14541
527.425	14541
527.525	14541
527.625	14541
527.726	14541
527.826	14541
527.926	14541
528.026	14541
528.127	14541
528.227	14541
528.327	14541
528.427	14541
528.528	14541
528.628	14541
528.728	14541
528.828	14541
528.928	14541
529.029	14541
529.129	14541
529.229	14541
529.329	14541
529.429	14541
529.529	14541
529.629	14541
529.729	14541
529.829	14541
529.93	14541
530.03	14541
530.13	14541
530.23	14541
530.33	14541
530.43	14541
530.53	14541
530.63	14541
530.73	14541
530.83	14541
530.93	14541
531.03	14541
531.13	14541
531.23	14541
531.33	14541
531.429	14541
531.529	14541
531.629	14541
531.729	14541
531.829	14541
531.929	14541
532.029	14541
532.129	14541
532.229	14541
532.328	14541
532.428	14541
532.528	14541
532.628	14541
532.728	14541
532.827	14541
532.927	14541
533.027	14541
533.127	14541
533.227	14541
533.326	14541
533.426	14541
533.526	14541
533.625	14541
533.725	14541
533.825	14541
533.924	14541
534.024	14541
534.124	14541
534.223	14541
534.323	14541
534.423	14541
534.522	14541
534.622	14541
534.722	14541
534.821	14541
534.921	14541
535.02	14541
535.12	14541
535.219	14541
535.319	14541
535.419	14541
535.518	14541
535.618	14518
535.717	14445
535.817	14327
535.916	14200
536.016	14272
536.115	14050
536.215	14128
536.314	13956
536.413	13888
536.513	13934
536.612	13984
536.712	13669
536.811	13744
536.91	13625
537.01	13524
537.109	13602
537.209	13718
537.308	13663
537.407	13513
537.507	13575
537.606	13490
537.705	13588
537.805	13279
537.904	13273
538.003	13266
538.102	13495
538.202	13206
538.301	13257
538.4	13320
538.499	13167
538.599	13063
538.698	13388
538.797	12934
538.896	13097
538.995	12865
539.095	12888
539.194	13002
539.293	12899
539.392	12712
539.491	12684
539.59	12757
539.689	12779
539.789	12735
539.888	12647
539.987	12449
540.086	12443
540.185	12385
540.284	12507
540.383	12372
540.482	12299
540.581	12258
540.68	12292
540.779	12357
540.878	12233
540.977	12294
541.076	12231
541.175	12075
541.274	12329
541.373	12274
541.472	12076
541.571	12076
541.67	13238
541.769	12036
541.868	11960
541.966	12164
542.065	11943
542.164	11793
542.263	11868
542.362	11905
542.461	11856
542.56	11858
542.658	11888
542.757	11795
542.856	11593
542.955	11702
543.054	11548
543.152	11738
543.251	11648
543.35	11741
543.449	11607
543.547	11601
543.646	11508
543.745	11665
543.843	11684
543.942	11633
544.041	11649
544.14	11596
544.238	11547
544.337	11814
544.436	11649
544.534	11813
544.633	11637
544.731	11516
544.83	11624
544.929	11689
545.027	11635
545.126	11693
545.224	11763
545.323	11610
545.421	11703
545.52	11806
545.619	11739
545.717	11581
545.816	11641
545.914	11620
546.013	11735
546.111	11958
546.209	11599
546.308	11518
546.406	11518
546.505	11757
546.603	11651
546.702	11491
546.8	11498
546.899	11546
546.997	11621
547.095	11465
547.194	11622
547.292	11408
547.39	11737
547.489	11645
547.587	11828
547.685	11600
547.784	11781
547.882	11651
547.98	11459
548.079	11702
548.177	11550
548.275	11588
548.373	11850
548.472	11558
548.57	11644
548.668	11604
548.766	11591
548.864	11672
548.963	11652
549.061	11768
549.159	11544
549.257	11697
549.355	11743
549.454	11607
549.552	11823
549.65	11784
549.748	11750
549.846	11764
549.944	11704
550.042	11527
550.14	11713
550.238	11673
550.336	11473
550.434	11476
550.532	11521
550.631	11600
550.729	11446
550.827	11518
550.925	11392
551.023	11359
551.121	11288
551.218	11484
551.316	11176
551.414	11455
551.512	11468
551.61	11581
551.708	11587
551.806	11741
551.904	11650
552.002	11653
552.1	11837
552.198	11934
552.296	12155
552.393	12303
552.491	12419
552.589	12406
552.687	12392
552.785	12456
552.882	12511
552.98	12730
553.078	12736
553.176	12730
553.274	12638
553.371	12492
553.469	12524
553.567	12352
553.665	12401
553.762	12679
553.86	12242
553.958	12098
554.055	12158
554.153	12002
554.251	11834
554.348	11938
554.446	11673
554.544	11616
554.641	11973
554.739	11625
554.837	11547
554.934	11478
555.032	11332
555.129	11196
555.227	11481
555.324	13881
555.422	11257
555.519	11072
555.617	10989
555.715	10786
555.812	11190
555.91	10973
556.007	10892
556.105	10772
556.202	10835
