Data from 7g_HRC06701__32__154.txt Node

Date: Thu Apr 18 01:50:21 CDT 2024
User: Estudiantes 2
Spectrometer: HR+C0670
Trigger mode: 4
Integration Time (sec): 1.000000E0
Scans to average: 1
Electric dark correction enabled: true
Nonlinearity correction enabled: false
Boxcar width: 0
XAxis mode: Wavelengths
Number of Pixels in Spectrum: 2048
>>>>>Begin Spectral Data<<<<<
407.81	-98.38
407.921	-98.38
408.032	-98.38
408.143	-120.38
408.254	-148.38
408.365	59.62
408.476	240.62
408.587	-24.38
408.699	-17.38
408.81	25.62
408.921	-68.38
409.032	-30.38
409.143	63.62
409.254	12.62
409.365	53.62
409.476	-20.38
409.587	12.62
409.698	59.62
409.809	89.62
409.92	-14.38
410.031	-39.38
410.142	51.62
410.253	56.62
410.364	12.62
410.475	755.62
410.585	3785.62
410.696	4020.62
410.807	4044.62
410.918	4001.62
411.029	4069.62
411.14	4068.62
411.251	4038.62
411.362	4101.62
411.472	4103.62
411.583	4122.62
411.694	4263.62
411.805	4141.62
411.916	4195.62
412.026	4428.62
412.137	4139.62
412.248	4169.62
412.359	4246.62
412.47	4034.62
412.58	4031.62
412.691	4249.62
412.802	4082.62
412.912	4024.62
413.023	4059.62
413.134	4032.62
413.245	4105.62
413.355	4072.62
413.466	4045.62
413.577	4029.62
413.687	4111.62
413.798	3996.62
413.909	4068.62
414.019	4040.62
414.13	4166.62
414.24	4037.62
414.351	4163.62
414.462	4331.62
414.572	4098.62
414.683	4088.62
414.793	4219.62
414.904	4463.62
415.014	4042.62
415.125	4070.62
415.235	4076.62
415.346	4132.62
415.456	4224.62
415.567	4068.62
415.677	4009.62
415.788	4062.62
415.898	3966.62
416.009	4081.62
416.119	4159.62
416.23	4144.62
416.34	4099.62
416.45	4063.62
416.561	4569.62
416.671	4181.62
416.782	4028.62
416.892	4148.62
417.002	4141.62
417.113	4231.62
417.223	4066.62
417.333	4069.62
417.444	4176.62
417.554	4238.62
417.664	4283.62
417.775	4212.62
417.885	4288.62
417.995	4277.62
418.106	4643.62
418.216	4383.62
418.326	4592.62
418.436	4612.62
418.547	4545.62
418.657	4492.62
418.767	4696.62
418.877	4590.62
418.987	4602.62
419.098	4651.62
419.208	4742.62
419.318	4685.62
419.428	4765.62
419.538	4608.62
419.648	4731.62
419.759	4735.62
419.869	4682.62
419.979	4681.62
420.089	4633.62
420.199	4710.62
420.309	4689.62
420.419	4589.62
420.529	4657.62
420.639	4955.62
420.749	4719.62
420.859	4725.62
420.969	4840.62
421.079	4981.62
421.189	4804.62
421.299	4808.62
421.409	4786.62
421.519	4847.62
421.629	5099.62
421.739	4833.62
421.849	4933.62
421.959	4960.62
422.069	4996.62
422.179	4983.62
422.289	5005.62
422.399	5219.62
422.509	5160.62
422.619	8049.62
422.729	5505.62
422.838	5245.62
422.948	5337.62
423.058	5277.62
423.168	5383.62
423.278	5458.62
423.388	5438.62
423.498	5669.62
423.607	5589.62
423.717	5939.62
423.827	5844.62
423.937	5660.62
424.046	5753.62
424.156	5799.62
424.266	5649.62
424.376	5977.62
424.485	6009.62
424.595	5807.62
424.705	5892.62
424.815	5937.62
424.924	6370.62
425.034	5968.62
425.144	5920.62
425.253	5889.62
425.363	6002.62
425.473	5980.62
425.582	5914.62
425.692	6016.62
425.801	5984.62
425.911	6201.62
426.021	6127.62
426.13	6294.62
426.24	6265.62
426.349	6264.62
426.459	6247.62
426.568	6194.62
426.678	6354.62
426.787	6261.62
426.897	6334.62
427.006	6433.62
427.116	6414.62
427.225	6410.62
427.335	6605.62
427.444	6525.62
427.554	6513.62
427.663	6579.62
427.773	6514.62
427.882	6669.62
427.992	6577.62
428.101	6696.62
428.21	6542.62
428.32	6818.62
428.429	6651.62
428.539	7096.62
428.648	6836.62
428.757	6824.62
428.867	6980.62
428.976	7052.62
429.085	7003.62
429.195	7057.62
429.304	6888.62
429.413	7133.62
429.523	7230.62
429.632	7067.62
429.741	7026.62
429.85	7131.62
429.96	7176.62
430.069	7192.62
430.178	7311.62
430.287	7414.62
430.397	7336.62
430.506	7220.62
430.615	7343.62
430.724	7351.62
430.833	7431.62
430.943	7468.62
431.052	7493.62
431.161	7533.62
431.27	7698.62
431.379	7632.62
431.488	7966.62
431.597	7872.62
431.706	7951.62
431.816	7877.62
431.925	7833.62
432.034	7866.62
432.143	7781.62
432.252	7654.62
432.361	7889.62
432.47	7828.62
432.579	7657.62
432.688	7766.62
432.797	7679.62
432.906	7691.62
433.015	7769.62
433.124	8208.62
433.233	7864.62
433.342	7764.62
433.451	7933.62
433.56	7809.62
433.669	7939.62
433.778	7871.62
433.886	8106.62
433.995	7913.62
434.104	8206.62
434.213	8065.62
434.322	8279.62
434.431	8436.62
434.54	8714.62
434.649	8957.62
434.757	8919.62
434.866	8535.62
434.975	8600.62
435.084	8376.62
435.193	8207.62
435.301	8227.62
435.41	8139.62
435.519	8270.62
435.628	7650.62
435.737	7550.62
435.845	7513.62
435.954	7417.62
436.063	7388.62
436.171	7485.62
436.28	7301.62
436.389	7587.62
436.498	7417.62
436.606	7466.62
436.715	7470.62
436.823	7233.62
436.932	7153.62
437.041	7104.62
437.149	7117.62
437.258	6933.62
437.367	6848.62
437.475	6804.62
437.584	7170.62
437.692	6892.62
437.801	8261.62
437.91	6913.62
438.018	6822.62
438.127	6724.62
438.235	6820.62
438.344	6936.62
438.452	6852.62
438.561	6697.62
438.669	6824.62
438.778	6601.62
438.886	6613.62
438.995	6692.62
439.103	6736.62
439.212	6689.62
439.32	6770.62
439.428	6734.62
439.537	6663.62
439.645	6884.62
439.754	6957.62
439.862	6710.62
439.97	6796.62
440.079	6861.62
440.187	6725.62
440.295	6972.62
440.404	6814.62
440.512	6806.62
440.62	6785.62
440.729	7030.62
440.837	7217.62
440.945	7771.62
441.054	7299.62
441.162	7269.62
441.27	7432.62
441.378	7547.62
441.487	7535.62
441.595	7934.62
441.703	7743.62
441.811	7528.62
441.92	7307.62
442.028	7284.62
442.136	7309.62
442.244	7218.62
442.352	7186.62
442.461	7143.62
442.569	7101.62
442.677	7241.62
442.785	7157.62
442.893	7233.62
443.001	7105.62
443.109	7056.62
443.217	7186.62
443.325	7056.62
443.434	7766.62
443.542	7534.62
443.65	7233.62
443.758	7545.62
443.866	7505.62
443.974	7842.62
444.082	7700.62
444.19	7984.62
444.298	8156.62
444.406	8296.62
444.514	8377.62
444.622	8551.62
444.73	8512.62
444.838	8205.62
444.946	8219.62
445.054	7874.62
445.161	7748.62
445.269	7661.62
445.377	7556.62
445.485	7562.62
445.593	7415.62
445.701	7647.62
445.809	7375.62
445.917	7264.62
446.025	7346.62
446.132	7356.62
446.24	7296.62
446.348	7371.62
446.456	7170.62
446.564	7154.62
446.671	7156.62
446.779	7173.62
446.887	7151.62
446.995	7064.62
447.102	7232.62
447.21	6955.62
447.318	7208.62
447.426	7093.62
447.533	7350.62
447.641	8304.62
447.749	7116.62
447.856	7105.62
447.964	7116.62
448.072	7081.62
448.179	7153.62
448.287	7061.62
448.395	7144.62
448.502	6993.62
448.61	7151.62
448.718	7101.62
448.825	7248.62
448.933	7128.62
449.04	7126.62
449.148	7290.62
449.256	7253.62
449.363	7292.62
449.471	7361.62
449.578	7328.62
449.686	7338.62
449.793	7730.62
449.901	7557.62
450.008	7564.62
450.116	7612.62
450.223	7677.62
450.331	7789.62
450.438	7753.62
450.546	7925.62
450.653	8062.62
450.76	8094.62
450.868	8179.62
450.975	8409.62
451.083	8095.62
451.19	8223.62
451.297	8174.62
451.405	8202.62
451.512	8173.62
451.619	8338.62
451.727	8383.62
451.834	8268.62
451.941	8310.62
452.049	8307.62
452.156	8411.62
452.263	8537.62
452.371	8471.62
452.478	8537.62
452.585	8674.62
452.692	8615.62
452.8	8513.62
452.907	8865.62
453.014	8603.62
453.121	8729.62
453.229	8725.62
453.336	8871.62
453.443	8748.62
453.55	8828.62
453.657	8635.62
453.765	8973.62
453.872	8766.62
453.979	8871.62
454.086	9039.62
454.193	8973.62
454.3	8857.62
454.407	9069.62
454.514	9098.62
454.621	8887.62
454.729	8973.62
454.836	9102.62
454.943	9173.62
455.05	9161.62
455.157	9312.62
455.264	9073.62
455.371	9338.62
455.478	9273.62
455.585	10779.62
455.692	9494.62
455.799	9614.62
455.906	9483.62
456.013	9444.62
456.12	9438.62
456.227	9331.62
456.334	9554.62
456.44	9739.62
456.547	9591.62
456.654	9534.62
456.761	9832.62
456.868	9815.62
456.975	9788.62
457.082	9758.62
457.189	9719.62
457.296	9840.62
457.402	9938.62
457.509	9787.62
457.616	10054.62
457.723	10303.62
457.83	10314.62
457.936	10207.62
458.043	10624.62
458.15	10327.62
458.257	10512.62
458.363	10778.62
458.47	10805.62
458.577	11117.62
458.684	10954.62
458.79	11323.62
458.897	11529.62
459.004	11671.62
459.11	11654.62
459.217	11735.62
459.324	11901.62
459.43	12194.62
459.537	12400.62
459.644	12318.62
459.75	12330.62
459.857	13032.62
459.964	12743.62
460.07	12594.62
460.177	12958.62
460.283	13133.62
460.39	13433.62
460.496	13040.62
460.603	13251.62
460.71	13047.62
460.816	13050.62
460.923	12870.62
461.029	12935.62
461.136	13013.62
461.242	12831.62
461.349	12959.62
461.455	13105.62
461.562	13323.62
461.668	13258.62
461.774	13062.62
461.881	13312.62
461.987	13499.62
462.094	13777.62
462.2	13932.62
462.307	13983.62
462.413	13969.62
462.519	14180.62
462.626	14546.62
462.732	14546.62
462.838	14546.62
462.945	14546.62
463.051	14546.62
463.157	14546.62
463.264	14546.62
463.37	14546.62
463.476	14478.62
463.583	14361.62
463.689	14161.62
463.795	14256.62
463.901	14241.62
464.008	14474.62
464.114	14477.62
464.22	14284.62
464.326	14240.62
464.433	13988.62
464.539	13725.62
464.645	13270.62
464.751	13303.62
464.857	12926.62
464.963	12494.62
465.07	12266.62
465.176	11712.62
465.282	11569.62
465.388	11454.62
465.494	10967.62
465.6	10708.62
465.706	10586.62
465.812	10510.62
465.918	10501.62
466.024	10175.62
466.131	10221.62
466.237	9852.62
466.343	9711.62
466.449	9629.62
466.555	9358.62
466.661	9208.62
466.767	9407.62
466.873	9221.62
466.979	9328.62
467.085	9277.62
467.191	9197.62
467.296	9124.62
467.402	9017.62
467.508	8957.62
467.614	9115.62
467.72	8837.62
467.826	8767.62
467.932	8663.62
468.038	8517.62
468.144	8608.62
468.25	8560.62
468.355	8498.62
468.461	8405.62
468.567	8422.62
468.673	8355.62
468.779	8224.62
468.885	8261.62
468.99	8152.62
469.096	8180.62
469.202	8412.62
469.308	8408.62
469.413	8361.62
469.519	8453.62
469.625	8495.62
469.731	8553.62
469.836	8389.62
469.942	8679.62
470.048	8475.62
470.153	8497.62
470.259	8617.62
470.365	8572.62
470.47	8577.62
470.576	8487.62
470.682	8382.62
470.787	8401.62
470.893	8183.62
470.999	8150.62
471.104	8003.62
471.21	7825.62
471.315	7733.62
471.421	7848.62
471.527	7869.62
471.632	7693.62
471.738	7562.62
471.843	7337.62
471.949	7517.62
472.054	7401.62
472.16	7383.62
472.265	7261.62
472.371	7190.62
472.476	7101.62
472.582	7249.62
472.687	7096.62
472.793	7044.62
472.898	7039.62
473.003	7124.62
473.109	7027.62
473.214	6868.62
473.32	6901.62
473.425	6955.62
473.53	6877.62
473.636	6893.62
473.741	6864.62
473.847	6791.62
473.952	6848.62
474.057	6901.62
474.163	6892.62
474.268	6846.62
474.373	6895.62
474.478	6734.62
474.584	6794.62
474.689	6805.62
474.794	6872.62
474.9	7034.62
475.005	6840.62
475.11	6955.62
475.215	6817.62
475.321	6756.62
475.426	7057.62
475.531	6979.62
475.636	6921.62
475.741	6783.62
475.846	7015.62
475.952	7145.62
476.057	7034.62
476.162	7091.62
476.267	7036.62
476.372	7354.62
476.477	6984.62
476.582	7221.62
476.687	7100.62
476.793	7210.62
476.898	7186.62
477.003	7229.62
477.108	7274.62
477.213	7181.62
477.318	7303.62
477.423	7486.62
477.528	7552.62
477.633	7652.62
477.738	7632.62
477.843	7525.62
477.948	7710.62
478.053	7751.62
478.158	7957.62
478.263	7885.62
478.368	7908.62
478.473	8200.62
478.578	8176.62
478.682	8073.62
478.787	8238.62
478.892	8116.62
478.997	8182.62
479.102	8196.62
479.207	8164.62
479.312	8375.62
479.417	8264.62
479.521	8310.62
479.626	8437.62
479.731	8413.62
479.836	8540.62
479.941	8716.62
480.045	8777.62
480.15	8934.62
480.255	8996.62
480.36	8918.62
480.465	8986.62
480.569	9095.62
480.674	8702.62
480.779	8560.62
480.883	8584.62
480.988	8577.62
481.093	8563.62
481.197	8600.62
481.302	8345.62
481.407	8452.62
481.511	9617.62
481.616	8569.62
481.721	8489.62
481.825	8716.62
481.93	8371.62
482.035	8409.62
482.139	8538.62
482.244	8450.62
482.348	8501.62
482.453	8426.62
482.557	8576.62
482.662	8587.62
482.767	8582.62
482.871	8685.62
482.976	8708.62
483.08	8826.62
483.185	9001.62
483.289	8842.62
483.394	9024.62
483.498	9062.62
483.603	8909.62
483.707	9111.62
483.811	9191.62
483.916	9213.62
484.02	9168.62
484.125	9355.62
484.229	9484.62
484.333	9549.62
484.438	9401.62
484.542	9564.62
484.647	9657.62
484.751	9781.62
484.855	9892.62
484.96	9832.62
485.064	9885.62
485.168	10037.62
485.273	9946.62
485.377	10116.62
485.481	10230.62
485.585	10243.62
485.69	10261.62
485.794	10407.62
485.898	10373.62
486.002	10287.62
486.107	10311.62
486.211	10300.62
486.315	10496.62
486.419	10348.62
486.524	10396.62
486.628	10385.62
486.732	10293.62
486.836	10359.62
486.94	10557.62
487.044	10347.62
487.148	10431.62
487.253	10388.62
487.357	10610.62
487.461	10645.62
487.565	10569.62
487.669	10531.62
487.773	10451.62
487.877	10500.62
487.981	10511.62
488.085	10487.62
488.189	10522.62
488.293	10635.62
488.397	10821.62
488.501	10467.62
488.605	10349.62
488.709	10536.62
488.813	10345.62
488.917	10365.62
489.021	10420.62
489.125	10696.62
489.229	10516.62
489.333	10732.62
489.437	10560.62
489.541	10663.62
489.645	10548.62
489.749	10633.62
489.853	10658.62
489.956	10639.62
490.06	10615.62
490.164	10598.62
490.268	10601.62
490.372	10633.62
490.476	10539.62
490.579	10564.62
490.683	11198.62
490.787	10742.62
490.891	10589.62
490.995	10670.62
491.098	10469.62
491.202	10519.62
491.306	10808.62
491.41	10418.62
491.513	10435.62
491.617	10680.62
491.721	10727.62
491.824	10846.62
491.928	10510.62
492.032	10756.62
492.136	10713.62
492.239	10542.62
492.343	10638.62
492.446	10943.62
492.55	10624.62
492.654	10511.62
492.757	10618.62
492.861	10723.62
492.965	10572.62
493.068	10672.62
493.172	10610.62
493.275	10728.62
493.379	10573.62
493.482	10667.62
493.586	10733.62
493.689	10912.62
493.793	10644.62
493.896	10836.62
494	10870.62
494.103	10841.62
494.207	11094.62
494.31	11099.62
494.414	10712.62
494.517	10681.62
494.621	10648.62
494.724	10664.62
494.828	10593.62
494.931	10546.62
495.034	10537.62
495.138	10602.62
495.241	10518.62
495.345	11176.62
495.448	10433.62
495.551	10402.62
495.655	10437.62
495.758	10407.62
495.861	10361.62
495.965	10419.62
496.068	10454.62
496.171	10408.62
496.274	10478.62
496.378	10479.62
496.481	10527.62
496.584	10635.62
496.687	10662.62
496.791	10799.62
496.894	10690.62
496.997	10872.62
497.1	10765.62
497.204	10908.62
497.307	10972.62
497.41	11102.62
497.513	11291.62
497.616	11223.62
497.719	11389.62
497.823	11387.62
497.926	11598.62
498.029	11881.62
498.132	11978.62
498.235	12181.62
498.338	12546.62
498.441	12793.62
498.544	13052.62
498.647	13470.62
498.75	13767.62
498.853	14006.62
498.956	14412.62
499.059	14546.62
499.163	14546.62
499.266	14546.62
499.369	14546.62
499.471	14546.62
499.574	14546.62
499.677	14546.62
499.78	14546.62
499.883	14546.62
499.986	14546.62
500.089	14546.62
500.192	14546.62
500.295	14546.62
500.398	14546.62
500.501	14546.62
500.604	14546.62
500.707	14546.62
500.809	14546.62
500.912	14546.62
501.015	14546.62
501.118	14546.62
501.221	14546.62
501.324	14546.62
501.426	14546.62
501.529	14255.62
501.632	13982.62
501.735	13337.62
501.837	13152.62
501.94	12659.62
502.043	12415.62
502.146	12117.62
502.248	11943.62
502.351	11535.62
502.454	11303.62
502.557	11053.62
502.659	11051.62
502.762	10512.62
502.865	10332.62
502.967	10261.62
503.07	10174.62
503.173	9936.62
503.275	9762.62
503.378	9777.62
503.48	9611.62
503.583	9609.62
503.686	9496.62
503.788	9714.62
503.891	9311.62
503.993	9776.62
504.096	9605.62
504.198	9601.62
504.301	9569.62
504.403	9644.62
504.506	9328.62
504.608	9220.62
504.711	9151.62
504.813	9008.62
504.916	8724.62
505.018	8430.62
505.121	8280.62
505.223	8225.62
505.326	8166.62
505.428	8009.62
505.531	8037.62
505.633	7982.62
505.735	7671.62
505.838	7651.62
505.94	7657.62
506.042	7457.62
506.145	7469.62
506.247	7549.62
506.35	7414.62
506.452	7410.62
506.554	7406.62
506.656	7426.62
506.759	7273.62
506.861	7262.62
506.963	7183.62
507.066	7210.62
507.168	7266.62
507.27	7238.62
507.372	7065.62
507.475	6981.62
507.577	7032.62
507.679	6971.62
507.781	6863.62
507.883	6908.62
507.986	6921.62
508.088	6873.62
508.19	6833.62
508.292	6830.62
508.394	6810.62
508.496	6670.62
508.598	6730.62
508.701	6791.62
508.803	6759.62
508.905	6665.62
509.007	6784.62
509.109	6856.62
509.211	6768.62
509.313	6713.62
509.415	6560.62
509.517	6590.62
509.619	6633.62
509.721	6580.62
509.823	6446.62
509.925	6819.62
510.027	6519.62
510.129	6606.62
510.231	6577.62
510.333	6605.62
510.435	6415.62
510.537	6549.62
510.639	6638.62
510.741	6409.62
510.843	6555.62
510.945	6541.62
511.047	6532.62
511.148	6554.62
511.25	6539.62
511.352	6475.62
511.454	6415.62
511.556	6531.62
511.658	6511.62
511.76	6569.62
511.861	6722.62
511.963	6556.62
512.065	6426.62
512.167	6388.62
512.268	6748.62
512.37	6564.62
512.472	6517.62
512.574	6660.62
512.676	6652.62
512.777	6503.62
512.879	6493.62
512.981	6566.62
513.082	6500.62
513.184	6558.62
513.286	7164.62
513.387	6859.62
513.489	6899.62
513.591	6775.62
513.692	6801.62
513.794	6741.62
513.896	6716.62
513.997	6834.62
514.099	6660.62
514.2	6886.62
514.302	6921.62
514.404	6823.62
514.505	6842.62
514.607	6932.62
514.708	6859.62
514.81	7015.62
514.911	7150.62
515.013	7128.62
515.114	7207.62
515.216	7127.62
515.317	7256.62
515.419	7185.62
515.52	7321.62
515.622	7386.62
515.723	7352.62
515.825	7564.62
515.926	7653.62
516.027	7503.62
516.129	7664.62
516.23	7883.62
516.332	7853.62
516.433	8009.62
516.534	8146.62
516.636	8261.62
516.737	8298.62
516.838	9466.62
516.94	8829.62
517.041	8800.62
517.142	9097.62
517.244	9326.62
517.345	9341.62
517.446	9348.62
517.547	9531.62
517.649	9544.62
517.75	9433.62
517.851	9669.62
517.952	9612.62
518.054	9364.62
518.155	9357.62
518.256	9022.62
518.357	8957.62
518.458	8790.62
518.56	8794.62
518.661	8568.62
518.762	8387.62
518.863	8522.62
518.964	8292.62
519.065	8130.62
519.166	8200.62
519.268	8048.62
519.369	8269.62
519.47	8020.62
519.571	7969.62
519.672	7860.62
519.773	7771.62
519.874	7837.62
519.975	7720.62
520.076	7705.62
520.177	7742.62
520.278	7592.62
520.379	7697.62
520.48	7593.62
520.581	7551.62
520.682	7468.62
520.783	7541.62
520.884	7605.62
520.985	7528.62
521.086	7607.62
521.187	7592.62
521.288	7354.62
521.389	7565.62
521.489	7402.62
521.59	7455.62
521.691	7469.62
521.792	7454.62
521.893	7504.62
521.994	7376.62
522.095	7467.62
522.195	7466.62
522.296	7588.62
522.397	7464.62
522.498	7393.62
522.599	7256.62
522.699	7296.62
522.8	7431.62
522.901	7528.62
523.002	7281.62
523.102	7654.62
523.203	7343.62
523.304	7586.62
523.405	7435.62
523.505	7446.62
523.606	7398.62
523.707	7411.62
523.807	7342.62
523.908	7189.62
524.009	7441.62
524.109	7457.62
524.21	7303.62
524.31	7540.62
524.411	7513.62
524.512	7534.62
524.612	7454.62
524.713	7577.62
524.813	7282.62
524.914	7692.62
525.014	12786.62
525.115	7773.62
525.216	7274.62
525.316	7544.62
525.417	7457.62
525.517	7369.62
525.618	7460.62
525.718	7333.62
525.819	7307.62
525.919	7382.62
526.019	7359.62
526.12	7436.62
526.22	7484.62
526.321	7239.62
526.421	7301.62
526.522	7271.62
526.622	7319.62
526.722	7431.62
526.823	7366.62
526.923	7340.62
527.023	7524.62
527.124	7316.62
527.224	7448.62
527.324	7361.62
527.425	7307.62
527.525	7172.62
527.625	7277.62
527.726	7332.62
527.826	7282.62
527.926	7371.62
528.026	7456.62
528.127	7212.62
528.227	7246.62
528.327	7500.62
528.427	7208.62
528.528	7226.62
528.628	7354.62
528.728	7257.62
528.828	7296.62
528.928	7309.62
529.029	7271.62
529.129	7316.62
529.229	7359.62
529.329	7322.62
529.429	7232.62
529.529	7401.62
529.629	7369.62
529.729	7208.62
529.829	7345.62
529.93	7109.62
530.03	7088.62
530.13	7073.62
530.23	7143.62
530.33	7191.62
530.43	7076.62
530.53	7134.62
530.63	7200.62
530.73	6983.62
530.83	6974.62
530.93	6987.62
531.03	6980.62
531.13	7183.62
531.23	6986.62
531.33	7000.62
531.429	7140.62
531.529	7076.62
531.629	7015.62
531.729	6892.62
531.829	6954.62
531.929	7048.62
532.029	7029.62
532.129	6831.62
532.229	7095.62
532.328	6873.62
532.428	6887.62
532.528	6839.62
532.628	6732.62
532.728	6764.62
532.827	6733.62
532.927	6835.62
533.027	6703.62
533.127	6944.62
533.227	6804.62
533.326	6747.62
533.426	6655.62
533.526	6765.62
533.625	6779.62
533.725	6865.62
533.825	6686.62
533.924	6516.62
534.024	6473.62
534.124	6518.62
534.223	6543.62
534.323	6920.62
534.423	6543.62
534.522	6442.62
534.622	6309.62
534.722	6477.62
534.821	6418.62
534.921	6337.62
535.02	6225.62
535.12	6408.62
535.219	6420.62
535.319	6373.62
535.419	6286.62
535.518	6171.62
535.618	6267.62
535.717	6154.62
535.817	6036.62
535.916	6044.62
536.016	6139.62
536.115	6015.62
536.215	5922.62
536.314	5945.62
