Data from 7g_HRC06701__6__128.txt Node

Date: Thu Apr 18 01:49:55 CDT 2024
User: Estudiantes 2
Spectrometer: HR+C0670
Trigger mode: 4
Integration Time (sec): 1.000000E0
Scans to average: 1
Electric dark correction enabled: true
Nonlinearity correction enabled: false
Boxcar width: 0
XAxis mode: Wavelengths
Number of Pixels in Spectrum: 2048
>>>>>Begin Spectral Data<<<<<
407.81	-153.75
407.921	-153.75
408.032	-153.75
408.143	-136.75
408.254	-104.75
408.365	36.25
408.476	241.25
408.587	-47.75
408.699	14.25
408.81	-5.75
408.921	-44.75
409.032	22.25
409.143	-9.75
409.254	30.25
409.365	115.25
409.476	-29.75
409.587	-5.75
409.698	79.25
409.809	85.25
409.92	-65.75
410.031	-11.75
410.142	79.25
410.253	14.25
410.364	43.25
410.475	617.25
410.585	2599.25
410.696	2820.25
410.807	2808.25
410.918	2687.25
411.029	2821.25
411.14	2810.25
411.251	2774.25
411.362	2815.25
411.472	2878.25
411.583	2859.25
411.694	2919.25
411.805	2803.25
411.916	2969.25
412.026	2951.25
412.137	2874.25
412.248	2811.25
412.359	2807.25
412.47	2802.25
412.58	2755.25
412.691	2810.25
412.802	2724.25
412.912	2829.25
413.023	2889.25
413.134	2731.25
413.245	2824.25
413.355	2853.25
413.466	2773.25
413.577	2724.25
413.687	2933.25
413.798	2642.25
413.909	2806.25
414.019	2795.25
414.13	2804.25
414.24	2723.25
414.351	2873.25
414.462	2999.25
414.572	2871.25
414.683	2856.25
414.793	2800.25
414.904	3085.25
415.014	2797.25
415.125	2769.25
415.235	2803.25
415.346	2961.25
415.456	2962.25
415.567	2857.25
415.677	2831.25
415.788	2809.25
415.898	2813.25
416.009	2771.25
416.119	2735.25
416.23	2842.25
416.34	2784.25
416.45	2815.25
416.561	3357.25
416.671	2798.25
416.782	2761.25
416.892	2882.25
417.002	2835.25
417.113	2837.25
417.223	2856.25
417.333	2753.25
417.444	2830.25
417.554	2870.25
417.664	3014.25
417.775	2821.25
417.885	3023.25
417.995	2986.25
418.106	3086.25
418.216	2957.25
418.326	3112.25
418.436	3068.25
418.547	3133.25
418.657	3042.25
418.767	3236.25
418.877	3062.25
418.987	3226.25
419.098	3215.25
419.208	3123.25
419.318	3225.25
419.428	3392.25
419.538	3074.25
419.648	3286.25
419.759	3299.25
419.869	3178.25
419.979	3182.25
420.089	3234.25
420.199	3141.25
420.309	3193.25
420.419	3160.25
420.529	3192.25
420.639	3535.25
420.749	3296.25
420.859	3267.25
420.969	3274.25
421.079	3513.25
421.189	3310.25
421.299	3233.25
421.409	3222.25
421.519	3448.25
421.629	3398.25
421.739	3298.25
421.849	3331.25
421.959	3485.25
422.069	3412.25
422.179	3349.25
422.289	3458.25
422.399	3484.25
422.509	3567.25
422.619	6610.25
422.729	3783.25
422.838	3587.25
422.948	3710.25
423.058	3721.25
423.168	3625.25
423.278	3756.25
423.388	3835.25
423.498	3870.25
423.607	3821.25
423.717	4099.25
423.827	4070.25
423.937	3879.25
424.046	3954.25
424.156	3982.25
424.266	3899.25
424.376	4154.25
424.485	4086.25
424.595	3961.25
424.705	4071.25
424.815	4111.25
424.924	4434.25
425.034	4084.25
425.144	4031.25
425.253	4072.25
425.363	4217.25
425.473	4245.25
425.582	4053.25
425.692	4164.25
425.801	4076.25
425.911	4289.25
426.021	4245.25
426.13	4449.25
426.24	4449.25
426.349	4342.25
426.459	4373.25
426.568	4299.25
426.678	4381.25
426.787	4409.25
426.897	4362.25
427.006	4343.25
427.116	4483.25
427.225	4518.25
427.335	4580.25
427.444	4380.25
427.554	4497.25
427.663	4506.25
427.773	4457.25
427.882	4684.25
427.992	4574.25
428.101	4643.25
428.21	4679.25
428.32	4787.25
428.429	4664.25
428.539	4933.25
428.648	4715.25
428.757	4803.25
428.867	4819.25
428.976	5045.25
429.085	4923.25
429.195	4875.25
429.304	4935.25
429.413	4965.25
429.523	5041.25
429.632	4899.25
429.741	4964.25
429.85	4869.25
429.96	5048.25
430.069	5079.25
430.178	5081.25
430.287	5394.25
430.397	5062.25
430.506	5105.25
430.615	5050.25
430.724	5222.25
430.833	5108.25
430.943	5085.25
431.052	5217.25
431.161	5317.25
431.27	5340.25
431.379	5293.25
431.488	5579.25
431.597	5477.25
431.706	5546.25
431.816	5547.25
431.925	5500.25
432.034	5478.25
432.143	5560.25
432.252	5487.25
432.361	5470.25
432.47	5526.25
432.579	5322.25
432.688	5489.25
432.797	5523.25
432.906	5442.25
433.015	5509.25
433.124	5822.25
433.233	5662.25
433.342	5486.25
433.451	5466.25
433.56	5572.25
433.669	5631.25
433.778	5478.25
433.886	5606.25
433.995	5702.25
434.104	5920.25
434.213	5775.25
434.322	5809.25
434.431	5913.25
434.54	6051.25
434.649	6252.25
434.757	6100.25
434.866	5897.25
434.975	5970.25
435.084	5919.25
435.193	5795.25
435.301	5928.25
435.41	5958.25
435.519	5857.25
435.628	5362.25
435.737	5425.25
435.845	5313.25
435.954	5235.25
436.063	5358.25
436.171	5284.25
436.28	5277.25
436.389	5327.25
436.498	5173.25
436.606	5215.25
436.715	5328.25
436.823	5124.25
436.932	5003.25
437.041	5066.25
437.149	5158.25
437.258	4863.25
437.367	4815.25
437.475	4885.25
437.584	5063.25
437.692	4838.25
437.801	6430.25
437.91	4932.25
438.018	4856.25
438.127	4760.25
438.235	4817.25
438.344	4779.25
438.452	4774.25
438.561	4721.25
438.669	4798.25
438.778	4618.25
438.886	4775.25
438.995	4656.25
439.103	4676.25
439.212	4766.25
439.32	4810.25
439.428	4702.25
439.537	4778.25
439.645	4890.25
439.754	4775.25
439.862	4658.25
439.97	4825.25
440.079	4833.25
440.187	4653.25
440.295	4982.25
440.404	4855.25
440.512	4738.25
440.62	4933.25
440.729	4921.25
440.837	4975.25
440.945	5636.25
441.054	5203.25
441.162	5087.25
441.27	5240.25
441.378	5366.25
441.487	5285.25
441.595	5601.25
441.703	5435.25
441.811	5281.25
441.92	5252.25
442.028	5091.25
442.136	5172.25
442.244	5142.25
442.352	5146.25
442.461	5060.25
442.569	4951.25
442.677	5063.25
442.785	5150.25
442.893	4956.25
443.001	4958.25
443.109	5040.25
443.217	5068.25
443.325	5119.25
443.434	5549.25
443.542	5376.25
443.65	5125.25
443.758	5426.25
443.866	5362.25
443.974	5550.25
444.082	5385.25
444.19	5636.25
444.298	5615.25
444.406	5812.25
444.514	5934.25
444.622	5912.25
444.73	6028.25
444.838	5956.25
444.946	5954.25
445.054	5557.25
445.161	5542.25
445.269	5370.25
445.377	5315.25
445.485	5384.25
445.593	5314.25
445.701	5385.25
445.809	5275.25
445.917	5159.25
446.025	5013.25
446.132	5279.25
446.24	5221.25
446.348	5132.25
446.456	5068.25
446.564	5122.25
446.671	5139.25
446.779	5104.25
446.887	5056.25
446.995	5066.25
447.102	5126.25
447.21	5097.25
447.318	5080.25
447.426	4933.25
447.533	5337.25
447.641	6293.25
447.749	5154.25
447.856	5079.25
447.964	5138.25
448.072	5167.25
448.179	5040.25
448.287	5098.25
448.395	5143.25
448.502	5079.25
448.61	5182.25
448.718	5187.25
448.825	5138.25
448.933	5092.25
449.04	5241.25
449.148	5207.25
449.256	5172.25
449.363	5295.25
449.471	5139.25
449.578	5283.25
449.686	5266.25
449.793	5584.25
449.901	5334.25
450.008	5367.25
450.116	5586.25
450.223	5467.25
450.331	5583.25
450.438	5672.25
450.546	5736.25
450.653	5629.25
450.76	5801.25
450.868	5797.25
450.975	5972.25
451.083	5816.25
451.19	5907.25
451.297	5801.25
451.405	5904.25
451.512	5943.25
451.619	5973.25
451.727	6020.25
451.834	5971.25
451.941	5899.25
452.049	5927.25
452.156	6097.25
452.263	6227.25
452.371	6063.25
452.478	6197.25
452.585	6260.25
452.692	6108.25
452.8	6186.25
452.907	6390.25
453.014	6244.25
453.121	6254.25
453.229	6354.25
453.336	6334.25
453.443	6423.25
453.55	6359.25
453.657	6364.25
453.765	6572.25
453.872	6431.25
453.979	6554.25
454.086	6480.25
454.193	6628.25
454.3	6479.25
454.407	6586.25
454.514	6659.25
454.621	6556.25
454.729	6537.25
454.836	6622.25
454.943	6728.25
455.05	6677.25
455.157	6828.25
455.264	6742.25
455.371	6838.25
455.478	6666.25
455.585	8133.25
455.692	6976.25
455.799	6914.25
455.906	6893.25
456.013	6920.25
456.12	6955.25
456.227	6943.25
456.334	7135.25
456.44	7206.25
456.547	7121.25
456.654	7020.25
456.761	7149.25
456.868	7235.25
456.975	7261.25
457.082	7199.25
457.189	7067.25
457.296	7226.25
457.402	7237.25
457.509	7167.25
457.616	7417.25
457.723	7653.25
457.83	7413.25
457.936	7391.25
458.043	7971.25
458.15	7623.25
458.257	7828.25
458.363	7900.25
458.47	7977.25
458.577	8098.25
458.684	7994.25
458.79	8432.25
458.897	8471.25
459.004	8551.25
459.11	8693.25
459.217	8579.25
459.324	8729.25
459.43	9019.25
459.537	8994.25
459.644	8976.25
459.75	9158.25
459.857	9494.25
459.964	9286.25
460.07	9397.25
460.177	9524.25
460.283	9626.25
460.39	9836.25
460.496	9659.25
460.603	9655.25
460.71	9623.25
460.816	9647.25
460.923	9567.25
461.029	9513.25
461.136	9427.25
461.242	9595.25
461.349	9498.25
461.455	9633.25
461.562	9905.25
461.668	9750.25
461.774	9689.25
461.881	9834.25
461.987	9955.25
462.094	10065.25
462.2	10270.25
462.307	10250.25
462.413	10147.25
462.519	10319.25
462.626	10902.25
462.732	10976.25
462.838	11486.25
462.945	11757.25
463.051	11710.25
463.157	11620.25
463.264	11167.25
463.37	10914.25
463.476	10702.25
463.583	10582.25
463.689	10378.25
463.795	10555.25
463.901	10453.25
464.008	10696.25
464.114	10561.25
464.22	10502.25
464.326	10516.25
464.433	10037.25
464.539	9991.25
464.645	9798.25
464.751	9882.25
464.857	9609.25
464.963	9235.25
465.07	9005.25
465.176	8752.25
465.282	8530.25
465.388	8391.25
465.494	8106.25
465.6	8039.25
465.706	7868.25
465.812	7767.25
465.918	7776.25
466.024	7697.25
466.131	7519.25
466.237	7385.25
466.343	7371.25
466.449	7054.25
466.555	7109.25
466.661	6975.25
466.767	6962.25
466.873	6906.25
466.979	6944.25
467.085	6776.25
467.191	6894.25
467.296	6817.25
467.402	6764.25
467.508	6587.25
467.614	6825.25
467.72	6595.25
467.826	6502.25
467.932	6534.25
468.038	6425.25
468.144	6395.25
468.25	6318.25
468.355	6292.25
468.461	6333.25
468.567	6263.25
468.673	6226.25
468.779	6260.25
468.885	6131.25
468.99	6178.25
469.096	6205.25
469.202	6259.25
469.308	6146.25
469.413	6439.25
469.519	6302.25
469.625	6239.25
469.731	6354.25
469.836	6419.25
469.942	6546.25
470.048	6469.25
470.153	6418.25
470.259	6406.25
470.365	6438.25
470.47	6562.25
470.576	6290.25
470.682	6310.25
470.787	6287.25
470.893	6097.25
470.999	6175.25
471.104	6023.25
471.21	5879.25
471.315	5822.25
471.421	5751.25
471.527	6018.25
471.632	5789.25
471.738	5772.25
471.843	5616.25
471.949	5545.25
472.054	5558.25
472.16	5511.25
472.265	5646.25
472.371	5454.25
472.476	5483.25
472.582	5555.25
472.687	5371.25
472.793	5341.25
472.898	5383.25
473.003	5323.25
473.109	5281.25
473.214	5166.25
473.32	5157.25
473.425	5237.25
473.53	5321.25
473.636	5308.25
473.741	5294.25
473.847	5192.25
473.952	5251.25
474.057	5221.25
474.163	5277.25
474.268	5228.25
474.373	5158.25
474.478	5161.25
474.584	5163.25
474.689	5275.25
474.794	5297.25
474.9	5563.25
475.005	5200.25
475.11	5383.25
475.215	5283.25
475.321	5313.25
475.426	5415.25
475.531	5277.25
475.636	5310.25
475.741	5203.25
475.846	5440.25
475.952	5570.25
476.057	5315.25
476.162	5378.25
476.267	5529.25
476.372	5666.25
476.477	5326.25
476.582	5522.25
476.687	5341.25
476.793	5435.25
476.898	5478.25
477.003	5583.25
477.108	5443.25
477.213	5475.25
477.318	5682.25
477.423	5780.25
477.528	5819.25
477.633	5891.25
477.738	5832.25
477.843	5716.25
477.948	5918.25
478.053	5945.25
478.158	5906.25
478.263	6085.25
478.368	6109.25
478.473	6269.25
478.578	6231.25
478.682	6262.25
478.787	6336.25
478.892	6242.25
478.997	6390.25
479.102	6336.25
479.207	6304.25
479.312	6558.25
479.417	6353.25
479.521	6401.25
479.626	6428.25
479.731	6458.25
479.836	6514.25
479.941	6701.25
480.045	6806.25
480.15	6776.25
480.255	6853.25
480.36	6912.25
480.465	6924.25
480.569	7047.25
480.674	6779.25
480.779	6656.25
480.883	6575.25
480.988	6614.25
481.093	6694.25
481.197	6524.25
481.302	6595.25
481.407	6539.25
481.511	7731.25
481.616	6642.25
481.721	6586.25
481.825	6718.25
481.93	6527.25
482.035	6629.25
482.139	6688.25
482.244	6672.25
482.348	6607.25
482.453	6761.25
482.557	6782.25
482.662	6672.25
482.767	6757.25
482.871	6691.25
482.976	6846.25
483.08	7041.25
483.185	7051.25
483.289	6920.25
483.394	7081.25
483.498	7119.25
483.603	7027.25
483.707	7171.25
483.811	7239.25
483.916	7417.25
484.02	7223.25
484.125	7377.25
484.229	7407.25
484.333	7542.25
484.438	7479.25
484.542	7499.25
484.647	7694.25
484.751	7766.25
484.855	7747.25
484.96	7769.25
485.064	7938.25
485.168	8004.25
485.273	7963.25
485.377	7981.25
485.481	8278.25
485.585	8090.25
485.69	8054.25
485.794	8159.25
485.898	8061.25
486.002	8235.25
486.107	8297.25
486.211	8222.25
486.315	8173.25
486.419	8342.25
486.524	8404.25
486.628	8274.25
486.732	8201.25
486.836	8266.25
486.94	8386.25
487.044	8330.25
487.148	8364.25
487.253	8154.25
487.357	8366.25
487.461	8535.25
487.565	8244.25
487.669	8268.25
487.773	8329.25
487.877	8252.25
487.981	8336.25
488.085	8344.25
488.189	8288.25
488.293	8532.25
488.397	8729.25
488.501	8313.25
488.605	8278.25
488.709	8338.25
488.813	8342.25
488.917	8267.25
489.021	8234.25
489.125	8679.25
489.229	8167.25
489.333	8495.25
489.437	8454.25
489.541	8446.25
489.645	8365.25
489.749	8354.25
489.853	8583.25
489.956	8250.25
490.06	8510.25
490.164	8440.25
490.268	8315.25
490.372	8443.25
490.476	8479.25
490.579	8451.25
490.683	9046.25
490.787	8530.25
490.891	8537.25
490.995	8527.25
491.098	8491.25
491.202	8498.25
491.306	8455.25
491.41	8427.25
491.513	8439.25
491.617	8526.25
491.721	8647.25
491.824	8722.25
491.928	8396.25
492.032	8680.25
492.136	8426.25
492.239	8446.25
492.343	8477.25
492.446	8803.25
492.55	8593.25
492.654	8311.25
492.757	8423.25
492.861	8487.25
492.965	8494.25
493.068	8491.25
493.172	8493.25
493.275	8421.25
493.379	8383.25
493.482	8510.25
493.586	8674.25
493.689	8720.25
493.793	8615.25
493.896	8736.25
494	8539.25
494.103	8606.25
494.207	8885.25
494.31	8848.25
494.414	8637.25
494.517	8598.25
494.621	8433.25
494.724	8352.25
494.828	8460.25
494.931	8294.25
495.034	8321.25
495.138	8435.25
495.241	8260.25
495.345	9167.25
495.448	8529.25
495.551	8352.25
495.655	8272.25
495.758	8337.25
495.861	8295.25
495.965	8420.25
496.068	8344.25
496.171	8399.25
496.274	8440.25
496.378	8294.25
496.481	8409.25
496.584	8362.25
496.687	8457.25
496.791	8584.25
496.894	8593.25
496.997	8490.25
497.1	8576.25
497.204	8684.25
497.307	8527.25
497.41	8955.25
497.513	9103.25
497.616	9038.25
497.719	9046.25
497.823	9043.25
497.926	9248.25
498.029	9387.25
498.132	9419.25
498.235	9660.25
498.338	9887.25
498.441	10069.25
498.544	10307.25
498.647	10622.25
498.75	10859.25
498.853	11239.25
498.956	11363.25
499.059	11890.25
499.163	11917.25
499.266	12408.25
499.369	12696.25
499.471	13252.25
499.574	13811.25
499.677	14100.25
499.78	14540.25
499.883	14540.25
499.986	14540.25
500.089	14540.25
500.192	14540.25
500.295	14540.25
500.398	14540.25
500.501	14540.25
500.604	14540.25
500.707	14540.25
500.809	14540.25
500.912	14540.25
501.015	14162.25
501.118	13599.25
501.221	12997.25
501.324	12292.25
501.426	11845.25
501.529	11320.25
501.632	10891.25
501.735	10682.25
501.837	10356.25
501.94	10183.25
502.043	9826.25
502.146	9603.25
502.248	9487.25
502.351	9245.25
502.454	9054.25
502.557	8924.25
502.659	8689.25
502.762	8480.25
502.865	8491.25
502.967	8207.25
503.07	8025.25
503.173	7943.25
503.275	7920.25
503.378	7743.25
503.48	7668.25
503.583	7810.25
503.686	7659.25
503.788	7768.25
503.891	7728.25
503.993	7751.25
504.096	7576.25
504.198	7689.25
504.301	7672.25
504.403	7704.25
504.506	7571.25
504.608	7597.25
504.711	7381.25
504.813	7367.25
504.916	7063.25
505.018	6853.25
505.121	6650.25
505.223	6775.25
505.326	6481.25
505.428	6629.25
505.531	6456.25
505.633	6457.25
505.735	6131.25
505.838	6235.25
505.94	6157.25
506.042	6042.25
506.145	5905.25
506.247	6087.25
506.35	5967.25
506.452	6108.25
506.554	6113.25
506.656	5979.25
506.759	5862.25
506.861	5883.25
506.963	5878.25
507.066	5868.25
507.168	6023.25
507.27	5897.25
507.372	5751.25
507.475	5654.25
507.577	5820.25
507.679	5589.25
507.781	5659.25
507.883	5688.25
507.986	5511.25
508.088	5617.25
508.19	5762.25
508.292	5676.25
508.394	5447.25
508.496	5523.25
508.598	5493.25
508.701	5531.25
508.803	5458.25
508.905	5451.25
509.007	5450.25
509.109	5495.25
509.211	5616.25
509.313	5338.25
509.415	5428.25
509.517	5439.25
509.619	5320.25
509.721	5365.25
509.823	5392.25
509.925	5604.25
510.027	5361.25
510.129	5414.25
510.231	5402.25
510.333	5269.25
510.435	5200.25
510.537	5474.25
510.639	5413.25
510.741	5305.25
510.843	5472.25
510.945	5290.25
511.047	5357.25
511.148	5371.25
511.25	5333.25
511.352	5240.25
511.454	5246.25
511.556	5528.25
511.658	5330.25
511.76	5338.25
511.861	5569.25
511.963	5298.25
512.065	5371.25
512.167	5320.25
512.268	5535.25
512.37	5375.25
512.472	5369.25
512.574	5449.25
512.676	5444.25
512.777	5354.25
512.879	5354.25
512.981	5353.25
513.082	5424.25
513.184	5403.25
513.286	5834.25
513.387	5558.25
513.489	5687.25
513.591	5546.25
513.692	5625.25
513.794	5488.25
513.896	5387.25
513.997	5455.25
514.099	5509.25
514.2	5600.25
514.302	5466.25
514.404	5599.25
514.505	5620.25
514.607	5693.25
514.708	5703.25
514.81	5803.25
514.911	5795.25
515.013	5846.25
515.114	5891.25
515.216	5813.25
515.317	5910.25
515.419	5809.25
515.52	6045.25
515.622	5970.25
515.723	6084.25
515.825	6355.25
515.926	6151.25
516.027	6099.25
516.129	6398.25
516.23	6481.25
516.332	6466.25
516.433	6643.25
516.534	6781.25
516.636	6711.25
516.737	6832.25
516.838	7995.25
516.94	7112.25
517.041	7243.25
517.142	7520.25
517.244	7577.25
517.345	7538.25
517.446	7716.25
517.547	7791.25
517.649	7754.25
517.75	7820.25
517.851	7745.25
517.952	7898.25
518.054	7677.25
518.155	7709.25
518.256	7464.25
518.357	7438.25
518.458	7148.25
518.56	6962.25
518.661	7024.25
518.762	6972.25
518.863	7005.25
518.964	6893.25
519.065	6815.25
519.166	6680.25
519.268	6565.25
519.369	6823.25
519.47	6661.25
519.571	6567.25
519.672	6498.25
519.773	6501.25
519.874	6537.25
519.975	6382.25
520.076	6475.25
520.177	6438.25
520.278	6300.25
520.379	6416.25
520.48	6108.25
520.581	6201.25
520.682	6227.25
520.783	6164.25
520.884	6367.25
520.985	6297.25
521.086	6394.25
521.187	6290.25
521.288	6169.25
521.389	6270.25
521.489	6153.25
521.59	6144.25
521.691	6217.25
521.792	6152.25
521.893	6281.25
521.994	6348.25
522.095	6239.25
522.195	6245.25
522.296	6346.25
522.397	6243.25
522.498	6247.25
522.599	6118.25
522.699	6290.25
522.8	6203.25
522.901	6191.25
523.002	6293.25
523.102	6443.25
523.203	6209.25
523.304	6425.25
523.405	6206.25
523.505	6261.25
523.606	6264.25
523.707	6321.25
523.807	6174.25
523.908	6223.25
524.009	6462.25
524.109	6325.25
524.21	6255.25
524.31	6345.25
524.411	6302.25
524.512	6453.25
524.612	6308.25
524.713	6448.25
524.813	6228.25
524.914	6545.25
525.014	10773.25
525.115	6548.25
525.216	6195.25
525.316	6252.25
525.417	6293.25
525.517	6303.25
525.618	6258.25
525.718	6254.25
525.819	6180.25
525.919	6374.25
526.019	6256.25
526.12	6300.25
526.22	6161.25
526.321	6289.25
526.421	6315.25
526.522	6162.25
526.622	6216.25
526.722	6203.25
526.823	6212.25
526.923	6347.25
527.023	6233.25
527.124	6137.25
527.224	6375.25
527.324	6090.25
527.425	6182.25
527.525	6194.25
527.625	6146.25
527.726	6268.25
527.826	6274.25
527.926	6248.25
528.026	6176.25
528.127	6180.25
528.227	6197.25
528.327	6278.25
528.427	6218.25
528.528	6374.25
528.628	6273.25
528.728	6165.25
528.828	6129.25
528.928	6242.25
529.029	6189.25
529.129	6259.25
529.229	6275.25
529.329	6155.25
529.429	6262.25
529.529	6290.25
529.629	6234.25
529.729	6167.25
529.829	6358.25
529.93	6139.25
530.03	6200.25
530.13	6078.25
530.23	6117.25
530.33	6169.25
530.43	6173.25
530.53	6079.25
530.63	6099.25
530.73	6039.25
530.83	5995.25
530.93	5958.25
531.03	6001.25
531.13	6016.25
531.23	6042.25
531.33	6041.25
531.429	6166.25
531.529	6107.25
531.629	5950.25
531.729	5953.25
531.829	5972.25
531.929	5907.25
532.029	6028.25
532.129	6040.25
532.229	5979.25
532.328	5842.25
532.428	5921.25
532.528	5735.25
532.628	5768.25
532.728	5866.25
532.827	5778.25
532.927	5833.25
533.027	5777.25
533.127	5953.25
533.227	5786.25
533.326	5832.25
533.426	5747.25
533.526	5875.25
533.625	5873.25
533.725	6013.25
533.825	5705.25
533.924	5611.25
534.024	5602.25
534.124	5608.25
534.223	5602.25
534.323	5986.25
534.423	5599.25
534.522	5394.25
534.622	5390.25
534.722	5465.25
534.821	5492.25
534.921	5419.25
535.02	5423.25
535.12	5317.25
535.219	5497.25
535.319	5432.25
535.419	5412.25
535.518	5346.25
535.618	5226.25
535.717	5406.25
535.817	5227.25
535.916	5140.25
536.016	5269.25
536.115	5099.25
536.215	5164.25
536.314	5098.25
536.413	4949.25
536.513	5086.25
536.612	5122.25
536.712	5006.25
536.811	4948.25
536.91	5001.25
537.01	5059.25
537.109	5022.25
537.209	4950.25
537.308	4969.25
537.407	4904.25
537.507	4935.25
