Data from 7g_HRC06701__43__165.txt Node

Date: Thu Apr 18 01:50:32 CDT 2024
User: Estudiantes 2
Spectrometer: HR+C0670
Trigger mode: 4
Integration Time (sec): 1.000000E0
Scans to average: 1
Electric dark correction enabled: true
Nonlinearity correction enabled: false
Boxcar width: 0
XAxis mode: Wavelengths
Number of Pixels in Spectrum: 2048
>>>>>Begin Spectral Data<<<<<
407.81	-102.19
407.921	-102.19
408.032	-102.19
408.143	-129.19
408.254	-128.19
408.365	65.81
408.476	208.81
408.587	-29.19
408.699	15.81
408.81	-17.19
408.921	-63.19
409.032	-9.19
409.143	16.81
409.254	32.81
409.365	102.81
409.476	-30.19
409.587	-12.19
409.698	77.81
409.809	134.81
409.92	-45.19
410.031	-0.19
410.142	84.81
410.253	3.81
410.364	33.81
410.475	91.81
410.585	379.81
410.696	478.81
410.807	474.81
410.918	417.81
411.029	461.81
411.14	477.81
411.251	457.81
411.362	488.81
411.472	513.81
411.583	492.81
411.694	473.81
411.805	470.81
411.916	506.81
412.026	557.81
412.137	490.81
412.248	507.81
412.359	465.81
412.47	390.81
412.58	405.81
412.691	502.81
412.802	495.81
412.912	471.81
413.023	466.81
413.134	440.81
413.245	499.81
413.355	486.81
413.466	413.81
413.577	465.81
413.687	555.81
413.798	393.81
413.909	482.81
414.019	486.81
414.13	491.81
414.24	404.81
414.351	462.81
414.462	622.81
414.572	504.81
414.683	483.81
414.793	464.81
414.904	735.81
415.014	487.81
415.125	468.81
415.235	486.81
415.346	577.81
415.456	582.81
415.567	500.81
415.677	470.81
415.788	481.81
415.898	485.81
416.009	444.81
416.119	468.81
416.23	493.81
416.34	390.81
416.45	449.81
416.561	1156.81
416.671	590.81
416.782	395.81
416.892	475.81
417.002	515.81
417.113	491.81
417.223	493.81
417.333	440.81
417.444	426.81
417.554	468.81
417.664	544.81
417.775	398.81
417.885	456.81
417.995	479.81
418.106	577.81
418.216	506.81
418.326	542.81
418.436	543.81
418.547	449.81
418.657	482.81
418.767	606.81
418.877	534.81
418.987	523.81
419.098	578.81
419.208	543.81
419.318	570.81
419.428	645.81
419.538	443.81
419.648	556.81
419.759	618.81
419.869	597.81
419.979	513.81
420.089	518.81
420.199	546.81
420.309	572.81
420.419	558.81
420.529	568.81
420.639	932.81
420.749	594.81
420.859	679.81
420.969	544.81
421.079	764.81
421.189	676.81
421.299	615.81
421.409	486.81
421.519	643.81
421.629	645.81
421.739	517.81
421.849	581.81
421.959	580.81
422.069	597.81
422.179	575.81
422.289	575.81
422.399	538.81
422.509	640.81
422.619	3660.81
422.729	862.81
422.838	540.81
422.948	626.81
423.058	598.81
423.168	548.81
423.278	591.81
423.388	685.81
423.498	634.81
423.607	607.81
423.717	915.81
423.827	800.81
423.937	638.81
424.046	741.81
424.156	702.81
424.266	632.81
424.376	831.81
424.485	813.81
424.595	634.81
424.705	633.81
424.815	657.81
424.924	1011.81
425.034	739.81
425.144	663.81
425.253	682.81
425.363	722.81
425.473	726.81
425.582	619.81
425.692	655.81
425.801	670.81
425.911	771.81
426.021	664.81
426.13	795.81
426.24	916.81
426.349	773.81
426.459	683.81
426.568	711.81
426.678	811.81
426.787	681.81
426.897	738.81
427.006	699.81
427.116	743.81
427.225	730.81
427.335	782.81
427.444	686.81
427.554	766.81
427.663	786.81
427.773	713.81
427.882	774.81
427.992	762.81
428.101	738.81
428.21	714.81
428.32	784.81
428.429	637.81
428.539	923.81
428.648	754.81
428.757	836.81
428.867	796.81
428.976	878.81
429.085	827.81
429.195	707.81
429.304	766.81
429.413	913.81
429.523	878.81
429.632	811.81
429.741	891.81
429.85	724.81
429.96	831.81
430.069	807.81
430.178	794.81
430.287	1049.81
430.397	883.81
430.506	846.81
430.615	778.81
430.724	845.81
430.833	916.81
430.943	823.81
431.052	806.81
431.161	838.81
431.27	860.81
431.379	845.81
431.488	999.81
431.597	908.81
431.706	901.81
431.816	897.81
431.925	893.81
432.034	830.81
432.143	948.81
432.252	990.81
432.361	961.81
432.47	889.81
432.579	892.81
432.688	937.81
432.797	864.81
432.906	890.81
433.015	937.81
433.124	1247.81
433.233	975.81
433.342	998.81
433.451	892.81
433.56	881.81
433.669	965.81
433.778	878.81
433.886	939.81
433.995	896.81
434.104	993.81
434.213	947.81
434.322	955.81
434.431	1057.81
434.54	1018.81
434.649	1142.81
434.757	1013.81
434.866	955.81
434.975	1022.81
435.084	1039.81
435.193	946.81
435.301	1203.81
435.41	1316.81
435.519	1331.81
435.628	885.81
435.737	909.81
435.845	818.81
435.954	821.81
436.063	962.81
436.171	906.81
436.28	860.81
436.389	960.81
436.498	858.81
436.606	857.81
436.715	966.81
436.823	874.81
436.932	836.81
437.041	848.81
437.149	900.81
437.258	802.81
437.367	817.81
437.475	799.81
437.584	983.81
437.692	801.81
437.801	2189.81
437.91	964.81
438.018	784.81
438.127	782.81
438.235	885.81
438.344	756.81
438.452	815.81
438.561	785.81
438.669	731.81
438.778	726.81
438.886	797.81
438.995	745.81
439.103	746.81
439.212	749.81
439.32	808.81
439.428	731.81
439.537	785.81
439.645	910.81
439.754	784.81
439.862	762.81
439.97	881.81
440.079	800.81
440.187	700.81
440.295	900.81
440.404	776.81
440.512	776.81
440.62	822.81
440.729	893.81
440.837	864.81
440.945	1425.81
441.054	995.81
441.162	848.81
441.27	937.81
441.378	878.81
441.487	903.81
441.595	1188.81
441.703	1052.81
441.811	897.81
441.92	839.81
442.028	809.81
442.136	901.81
442.244	855.81
442.352	847.81
442.461	805.81
442.569	787.81
442.677	797.81
442.785	892.81
442.893	831.81
443.001	814.81
443.109	813.81
443.217	831.81
443.325	770.81
443.434	1291.81
443.542	1055.81
443.65	852.81
443.758	972.81
443.866	904.81
443.974	1140.81
444.082	934.81
444.19	977.81
444.298	915.81
444.406	1070.81
444.514	965.81
444.622	1020.81
444.73	1070.81
444.838	1009.81
444.946	1027.81
445.054	904.81
445.161	941.81
445.269	942.81
445.377	958.81
445.485	925.81
445.593	948.81
445.701	1066.81
445.809	940.81
445.917	946.81
446.025	838.81
446.132	940.81
446.24	976.81
446.348	911.81
446.456	784.81
446.564	847.81
446.671	894.81
446.779	820.81
446.887	841.81
446.995	892.81
447.102	854.81
447.21	888.81
447.318	909.81
447.426	812.81
447.533	1074.81
447.641	1986.81
447.749	973.81
447.856	850.81
447.964	868.81
448.072	1024.81
448.179	821.81
448.287	884.81
448.395	943.81
448.502	783.81
448.61	893.81
448.718	890.81
448.825	850.81
448.933	879.81
449.04	818.81
449.148	872.81
449.256	857.81
449.363	918.81
449.471	934.81
449.578	930.81
449.686	840.81
449.793	1044.81
449.901	886.81
450.008	883.81
450.116	971.81
450.223	887.81
450.331	1019.81
450.438	994.81
450.546	952.81
450.653	973.81
450.76	987.81
450.868	985.81
450.975	1161.81
451.083	1025.81
451.19	1099.81
451.297	1009.81
451.405	1081.81
451.512	1011.81
451.619	1108.81
451.727	1136.81
451.834	1041.81
451.941	1020.81
452.049	1044.81
452.156	1014.81
452.263	1066.81
452.371	983.81
452.478	1090.81
452.585	1188.81
452.692	1021.81
452.8	1066.81
452.907	1258.81
453.014	1091.81
453.121	1054.81
453.229	1099.81
453.336	1139.81
453.443	1149.81
453.55	1079.81
453.657	1100.81
453.765	1139.81
453.872	1045.81
453.979	1206.81
454.086	1075.81
454.193	1107.81
454.3	1092.81
454.407	1129.81
454.514	1235.81
454.621	1112.81
454.729	1104.81
454.836	1097.81
454.943	1130.81
455.05	1254.81
455.157	1237.81
455.264	1180.81
455.371	1229.81
455.478	1163.81
455.585	2307.81
455.692	1349.81
455.799	1328.81
455.906	1146.81
456.013	1168.81
456.12	1146.81
456.227	1179.81
456.334	1205.81
456.44	1352.81
456.547	1220.81
456.654	1160.81
456.761	1269.81
456.868	1275.81
456.975	1242.81
457.082	1283.81
457.189	1188.81
457.296	1256.81
457.402	1288.81
457.509	1184.81
457.616	1253.81
457.723	1477.81
457.83	1323.81
457.936	1245.81
458.043	1515.81
458.15	1329.81
458.257	1408.81
458.363	1344.81
458.47	1386.81
458.577	1423.81
458.684	1347.81
458.79	1449.81
458.897	1444.81
459.004	1542.81
459.11	1530.81
459.217	1505.81
459.324	1569.81
459.43	1619.81
459.537	1803.81
459.644	1633.81
459.75	1534.81
459.857	1956.81
459.964	1654.81
460.07	1708.81
460.177	1717.81
460.283	1738.81
460.39	1853.81
460.496	1744.81
460.603	1735.81
460.71	1688.81
460.816	1642.81
460.923	1677.81
461.029	1660.81
461.136	1687.81
461.242	1760.81
461.349	1664.81
461.455	1673.81
461.562	2016.81
461.668	1807.81
461.774	1733.81
461.881	1829.81
461.987	1777.81
462.094	1759.81
462.2	1864.81
462.307	1882.81
462.413	1779.81
462.519	1804.81
462.626	2120.81
462.732	1890.81
462.838	2059.81
462.945	2178.81
463.051	2067.81
463.157	2033.81
463.264	2045.81
463.37	1994.81
463.476	1882.81
463.583	1906.81
463.689	1894.81
463.795	1838.81
463.901	1938.81
464.008	2034.81
464.114	1896.81
464.22	1819.81
464.326	1947.81
464.433	1791.81
464.539	1826.81
464.645	1780.81
464.751	1860.81
464.857	1724.81
464.963	1625.81
465.07	1701.81
465.176	1612.81
465.282	1495.81
465.388	1677.81
465.494	1359.81
465.6	1449.81
465.706	1399.81
465.812	1340.81
465.918	1434.81
466.024	1390.81
466.131	1354.81
466.237	1275.81
466.343	1254.81
466.449	1311.81
466.555	1243.81
466.661	1175.81
466.767	1261.81
466.873	1200.81
466.979	1349.81
467.085	1264.81
467.191	1225.81
467.296	1165.81
467.402	1240.81
467.508	1216.81
467.614	1275.81
467.72	1168.81
467.826	1165.81
467.932	1124.81
468.038	1140.81
468.144	1189.81
468.25	1147.81
468.355	1085.81
468.461	1165.81
468.567	1058.81
468.673	1143.81
468.779	1186.81
468.885	1098.81
468.99	1063.81
469.096	1088.81
469.202	1180.81
469.308	1147.81
469.413	1187.81
469.519	1174.81
469.625	1085.81
469.731	1186.81
469.836	1120.81
469.942	1276.81
470.048	1199.81
470.153	1148.81
470.259	1107.81
470.365	1239.81
470.47	1204.81
470.576	1137.81
470.682	1080.81
470.787	1125.81
470.893	1027.81
470.999	1121.81
471.104	1132.81
471.21	1107.81
471.315	1011.81
471.421	996.81
471.527	1216.81
471.632	1091.81
471.738	1082.81
471.843	1002.81
471.949	1050.81
472.054	1029.81
472.16	1005.81
472.265	1006.81
472.371	972.81
472.476	1003.81
472.582	1100.81
472.687	1007.81
472.793	929.81
472.898	979.81
473.003	931.81
473.109	919.81
473.214	937.81
473.32	940.81
473.425	1011.81
473.53	968.81
473.636	931.81
473.741	966.81
473.847	898.81
473.952	1017.81
474.057	1021.81
474.163	1013.81
474.268	974.81
474.373	1023.81
474.478	880.81
474.584	933.81
474.689	964.81
474.794	940.81
474.9	1130.81
475.005	960.81
475.11	1071.81
475.215	912.81
475.321	986.81
475.426	1122.81
475.531	1076.81
475.636	948.81
475.741	901.81
475.846	1105.81
475.952	1210.81
476.057	1044.81
476.162	1072.81
476.267	1075.81
476.372	1196.81
476.477	957.81
476.582	1081.81
476.687	1018.81
476.793	1010.81
476.898	1012.81
477.003	1042.81
477.108	973.81
477.213	954.81
477.318	1023.81
477.423	1056.81
477.528	1152.81
477.633	1125.81
477.738	1121.81
477.843	1041.81
477.948	1049.81
478.053	1109.81
478.158	1018.81
478.263	1114.81
478.368	1141.81
478.473	1136.81
478.578	1141.81
478.682	1094.81
478.787	1179.81
478.892	1137.81
478.997	1205.81
479.102	1129.81
479.207	1147.81
479.312	1288.81
479.417	1187.81
479.521	1114.81
479.626	1220.81
479.731	1198.81
479.836	1099.81
479.941	1255.81
480.045	1324.81
480.15	1255.81
480.255	1201.81
480.36	1221.81
480.465	1231.81
480.569	1259.81
480.674	1180.81
480.779	1194.81
480.883	1103.81
480.988	1195.81
481.093	1201.81
481.197	1165.81
481.302	1182.81
481.407	1323.81
481.511	2819.81
481.616	1263.81
481.721	1219.81
481.825	1313.81
481.93	1101.81
482.035	1175.81
482.139	1261.81
482.244	1217.81
482.348	1192.81
482.453	1234.81
482.557	1219.81
482.662	1221.81
482.767	1173.81
482.871	1137.81
482.976	1204.81
483.08	1296.81
483.185	1373.81
483.289	1229.81
483.394	1207.81
483.498	1297.81
483.603	1186.81
483.707	1283.81
483.811	1397.81
483.916	1369.81
484.02	1278.81
484.125	1408.81
484.229	1326.81
484.333	1379.81
484.438	1374.81
484.542	1321.81
484.647	1246.81
484.751	1295.81
484.855	1347.81
484.96	1346.81
485.064	1332.81
485.168	1389.81
485.273	1382.81
485.377	1331.81
485.481	1597.81
485.585	1350.81
485.69	1389.81
485.794	1510.81
485.898	1462.81
486.002	1363.81
486.107	1429.81
486.211	1459.81
486.315	1434.81
486.419	1511.81
486.524	1478.81
486.628	1391.81
486.732	1378.81
486.836	1504.81
486.94	1501.81
487.044	1414.81
487.148	1474.81
487.253	1383.81
487.357	1442.81
487.461	1551.81
487.565	1459.81
487.669	1417.81
487.773	1434.81
487.877	1524.81
487.981	1510.81
488.085	1518.81
488.189	1531.81
488.293	1620.81
488.397	1898.81
488.501	1611.81
488.605	1500.81
488.709	1479.81
488.813	1429.81
488.917	1487.81
489.021	1483.81
489.125	1736.81
489.229	1545.81
489.333	1569.81
489.437	1494.81
489.541	1578.81
489.645	1575.81
489.749	1546.81
489.853	1629.81
489.956	1479.81
490.06	1512.81
490.164	1548.81
490.268	1528.81
490.372	1502.81
490.476	1510.81
490.579	1535.81
490.683	2085.81
490.787	1587.81
490.891	1540.81
490.995	1477.81
491.098	1562.81
491.202	1594.81
491.306	1597.81
491.41	1590.81
491.513	1564.81
491.617	1587.81
491.721	1689.81
491.824	1777.81
491.928	1585.81
492.032	1752.81
492.136	1582.81
492.239	1571.81
492.343	1563.81
492.446	1929.81
492.55	1706.81
492.654	1472.81
492.757	1470.81
492.861	1650.81
492.965	1588.81
493.068	1619.81
493.172	1582.81
493.275	1548.81
493.379	1533.81
493.482	1679.81
493.586	1793.81
493.689	1763.81
493.793	1572.81
493.896	1705.81
494	1661.81
494.103	1661.81
494.207	1892.81
494.31	1911.81
494.414	1635.81
494.517	1589.81
494.621	1528.81
494.724	1605.81
494.828	1549.81
494.931	1607.81
495.034	1518.81
495.138	1714.81
495.241	1566.81
495.345	2252.81
495.448	1668.81
495.551	1583.81
495.655	1571.81
495.758	1474.81
495.861	1539.81
495.965	1533.81
496.068	1530.81
496.171	1644.81
496.274	1581.81
496.378	1488.81
496.481	1566.81
496.584	1566.81
496.687	1579.81
496.791	1589.81
496.894	1727.81
496.997	1635.81
497.1	1612.81
497.204	1648.81
497.307	1571.81
497.41	1791.81
497.513	1871.81
497.616	1665.81
497.719	1613.81
497.823	1685.81
497.926	1750.81
498.029	1696.81
498.132	1748.81
498.235	1800.81
498.338	1839.81
498.441	1894.81
498.544	1922.81
498.647	1977.81
498.75	2030.81
498.853	2216.81
498.956	2111.81
499.059	2352.81
499.163	2193.81
499.266	2338.81
499.369	2418.81
499.471	2451.81
499.574	2698.81
499.677	2657.81
499.78	2785.81
499.883	2919.81
499.986	3072.81
500.089	3052.81
500.192	3216.81
500.295	3352.81
500.398	3193.81
500.501	3162.81
500.604	3095.81
500.707	2906.81
500.809	2841.81
500.912	2829.81
501.015	2658.81
501.118	2513.81
501.221	2563.81
501.324	2332.81
501.426	2238.81
501.529	2065.81
501.632	2109.81
501.735	1942.81
501.837	1881.81
501.94	1922.81
502.043	1813.81
502.146	1809.81
502.248	1868.81
502.351	1634.81
502.454	1637.81
502.557	1650.81
502.659	1646.81
502.762	1537.81
502.865	1505.81
502.967	1547.81
503.07	1476.81
503.173	1520.81
503.275	1467.81
503.378	1438.81
503.48	1437.81
503.583	1564.81
503.686	1476.81
503.788	1685.81
503.891	1468.81
503.993	1704.81
504.096	1388.81
504.198	1445.81
504.301	1390.81
504.403	1421.81
504.506	1410.81
504.608	1437.81
504.711	1309.81
504.813	1328.81
504.916	1390.81
505.018	1277.81
505.121	1247.81
505.223	1336.81
505.326	1228.81
505.428	1333.81
505.531	1242.81
505.633	1243.81
505.735	1163.81
505.838	1163.81
505.94	1181.81
506.042	1111.81
506.145	1058.81
506.247	1249.81
506.35	1065.81
506.452	1202.81
506.554	1254.81
506.656	1151.81
506.759	1073.81
506.861	1166.81
506.963	1175.81
507.066	1159.81
507.168	1237.81
507.27	1167.81
507.372	1120.81
507.475	1121.81
507.577	1169.81
507.679	1043.81
507.781	1030.81
507.883	1179.81
507.986	1012.81
508.088	1070.81
508.19	1169.81
508.292	1140.81
508.394	1065.81
508.496	981.81
508.598	1072.81
508.701	1056.81
508.803	1039.81
508.905	1066.81
509.007	1079.81
509.109	1097.81
509.211	1142.81
509.313	1010.81
509.415	1027.81
509.517	1090.81
509.619	999.81
509.721	1124.81
509.823	1011.81
509.925	1215.81
510.027	1057.81
510.129	1030.81
510.231	1105.81
510.333	987.81
510.435	977.81
510.537	1114.81
510.639	1134.81
510.741	1033.81
510.843	1139.81
510.945	1051.81
511.047	1067.81
511.148	1089.81
511.25	1050.81
511.352	1019.81
511.454	940.81
511.556	1133.81
511.658	1019.81
511.76	1042.81
511.861	1223.81
511.963	1004.81
512.065	1014.81
512.167	1060.81
512.268	1163.81
512.37	1073.81
512.472	1042.81
512.574	1142.81
512.676	1085.81
512.777	1031.81
512.879	1011.81
512.981	993.81
513.082	1038.81
513.184	1097.81
513.286	1455.81
513.387	1125.81
513.489	1237.81
513.591	1134.81
513.692	1131.81
513.794	1108.81
513.896	1053.81
513.997	1021.81
514.099	1082.81
514.2	1110.81
514.302	1081.81
514.404	1057.81
514.505	1105.81
514.607	1105.81
514.708	1075.81
514.81	1138.81
514.911	1141.81
515.013	1213.81
515.114	1163.81
515.216	1136.81
515.317	1094.81
515.419	1112.81
515.52	1193.81
515.622	1177.81
515.723	1210.81
515.825	1331.81
515.926	1172.81
516.027	1147.81
516.129	1289.81
516.23	1253.81
516.332	1273.81
516.433	1275.81
516.534	1379.81
516.636	1251.81
516.737	1233.81
516.838	2260.81
516.94	1487.81
517.041	1395.81
517.142	1523.81
517.244	1506.81
517.345	1471.81
517.446	1452.81
517.547	1490.81
517.649	1394.81
517.75	1489.81
517.851	1449.81
517.952	1679.81
518.054	1449.81
518.155	1595.81
518.256	1422.81
518.357	1519.81
518.458	1430.81
518.56	1298.81
518.661	1303.81
518.762	1408.81
518.863	1441.81
518.964	1389.81
519.065	1305.81
519.166	1242.81
519.268	1189.81
519.369	1503.81
519.47	1268.81
519.571	1265.81
519.672	1225.81
519.773	1274.81
519.874	1261.81
519.975	1289.81
520.076	1258.81
520.177	1310.81
520.278	1273.81
520.379	1288.81
520.48	1162.81
520.581	1207.81
520.682	1174.81
520.783	1236.81
520.884	1236.81
520.985	1286.81
521.086	1311.81
521.187	1277.81
521.288	1169.81
521.389	1273.81
521.489	1142.81
521.59	1157.81
521.691	1273.81
521.792	1217.81
521.893	1325.81
521.994	1339.81
522.095	1258.81
522.195	1280.81
522.296	1346.81
522.397	1342.81
522.498	1232.81
522.599	1181.81
522.699	1262.81
522.8	1278.81
522.901	1301.81
523.002	1295.81
523.102	1424.81
523.203	1254.81
523.304	1388.81
523.405	1238.81
523.505	1236.81
523.606	1283.81
523.707	1291.81
523.807	1261.81
523.908	1254.81
524.009	1393.81
524.109	1249.81
524.21	1232.81
524.31	1344.81
524.411	1369.81
524.512	1336.81
524.612	1277.81
524.713	1411.81
524.813	1303.81
524.914	1484.81
525.014	5352.81
525.115	1607.81
525.216	1260.81
525.316	1329.81
525.417	1323.81
525.517	1251.81
525.618	1250.81
525.718	1225.81
525.819	1206.81
525.919	1291.81
526.019	1220.81
526.12	1338.81
526.22	1190.81
526.321	1253.81
526.421	1162.81
526.522	1215.81
526.622	1248.81
526.722	1230.81
526.823	1238.81
526.923	1323.81
527.023	1334.81
527.124	1239.81
527.224	1391.81
527.324	1264.81
527.425	1311.81
527.525	1151.81
527.625	1269.81
527.726	1249.81
527.826	1333.81
527.926	1286.81
528.026	1225.81
528.127	1221.81
528.227	1251.81
528.327	1319.81
528.427	1243.81
528.528	1280.81
528.628	1340.81
528.728	1251.81
528.828	1332.81
528.928	1318.81
529.029	1228.81
529.129	1262.81
529.229	1325.81
529.329	1248.81
529.429	1301.81
529.529	1402.81
529.629	1331.81
529.729	1215.81
529.829	1442.81
529.93	1245.81
530.03	1305.81
530.13	1255.81
530.23	1330.81
530.33	1320.81
530.43	1223.81
530.53	1303.81
530.63	1206.81
530.73	1162.81
530.83	1160.81
530.93	1206.81
531.03	1131.81
531.13	1312.81
531.23	1234.81
531.33	1280.81
531.429	1299.81
531.529	1268.81
531.629	1220.81
531.729	1152.81
531.829	1199.81
531.929	1193.81
532.029	1218.81
532.129	1264.81
532.229	1222.81
532.328	1151.81
532.428	1234.81
532.528	1163.81
532.628	1106.81
532.728	1220.81
532.827	1158.81
532.927	1219.81
533.027	1202.81
533.127	1352.81
533.227	1137.81
533.326	1225.81
533.426	1213.81
533.526	1236.81
533.625	1281.81
533.725	1452.81
533.825	1213.81
533.924	1104.81
534.024	1101.81
534.124	1106.81
534.223	1143.81
534.323	1502.81
534.423	1201.81
534.522	1114.81
534.622	1093.81
534.722	1125.81
534.821	1147.81
534.921	1042.81
535.02	1074.81
535.12	1194.81
535.219	1202.81
535.319	1147.81
535.419	1177.81
535.518	1047.81
535.618	1147.81
535.717	1220.81
535.817	1024.81
535.916	982.81
536.016	1151.81
536.115	1028.81
536.215	1040.81
536.314	1029.81
536.413	969.81
536.513	979.81
536.612	1056.81
536.712	966.81
536.811	1009.81
536.91	931.81
537.01	1028.81
537.109	1005.81
537.209	983.81
537.308	1000.81
537.407	930.81
537.507	1011.81
537.606	1044.81
537.705	1051.81
537.805	1000.81
537.904	960.81
538.003	989.81
538.102	1122.81
538.202	1000.81
538.301	1049.81
538.4	1064.81
538.499	996.81
538.599	1040.81
538.698	1213.81
538.797	929.81
538.896	1076.81
538.995	971.81
539.095	904.81
539.194	1198.81
539.293	988.81
539.392	954.81
539.491	956.81
539.59	1044.81
539.689	1130.81
539.789	1039.81
539.888	962.81
539.987	891.81
540.086	954.81
540.185	950.81
540.284	949.81
540.383	988.81
