Data from 7g_HRC06701__37__159.txt Node

Date: Thu Apr 18 01:50:26 CDT 2024
User: Estudiantes 2
Spectrometer: HR+C0670
Trigger mode: 4
Integration Time (sec): 1.000000E0
Scans to average: 1
Electric dark correction enabled: true
Nonlinearity correction enabled: false
Boxcar width: 0
XAxis mode: Wavelengths
Number of Pixels in Spectrum: 2048
>>>>>Begin Spectral Data<<<<<
407.81	-76.38
407.921	-76.38
408.032	-76.38
408.143	-136.38
408.254	-125.38
408.365	46.62
408.476	244.62
408.587	-52.38
408.699	-24.38
408.81	-28.38
408.921	-56.38
409.032	-54.38
409.143	78.62
409.254	20.62
409.365	95.62
409.476	39.62
409.587	0.62
409.698	27.62
409.809	115.62
409.92	-7.38
410.031	-46.38
410.142	58.62
410.253	15.62
410.364	3.62
410.475	490.62
410.585	2721.62
410.696	2966.62
410.807	2917.62
410.918	2960.62
411.029	3010.62
411.14	3081.62
411.251	3032.62
411.362	3004.62
411.472	3001.62
411.583	3017.62
411.694	3120.62
411.805	2982.62
411.916	3119.62
412.026	3181.62
412.137	3002.62
412.248	2994.62
412.359	3125.62
412.47	2882.62
412.58	2860.62
412.691	3042.62
412.802	2872.62
412.912	2877.62
413.023	2978.62
413.134	2993.62
413.245	2926.62
413.355	2966.62
413.466	3001.62
413.577	2897.62
413.687	3017.62
413.798	2898.62
413.909	3058.62
414.019	2958.62
414.13	2993.62
414.24	2910.62
414.351	3002.62
414.462	3233.62
414.572	2985.62
414.683	2941.62
414.793	2933.62
414.904	3337.62
415.014	2938.62
415.125	2939.62
415.235	3043.62
415.346	3061.62
415.456	3110.62
415.567	3014.62
415.677	2873.62
415.788	2968.62
415.898	3007.62
416.009	2927.62
416.119	2959.62
416.23	2950.62
416.34	2954.62
416.45	3003.62
416.561	3511.62
416.671	3116.62
416.782	2854.62
416.892	2988.62
417.002	3066.62
417.113	3059.62
417.223	3044.62
417.333	3002.62
417.444	3055.62
417.554	3110.62
417.664	3104.62
417.775	2991.62
417.885	3124.62
417.995	3158.62
418.106	3349.62
418.216	3185.62
418.326	3331.62
418.436	3414.62
418.547	3237.62
418.657	3269.62
418.767	3473.62
418.877	3358.62
418.987	3337.62
419.098	3343.62
419.208	3391.62
419.318	3459.62
419.428	3503.62
419.538	3338.62
419.648	3458.62
419.759	3422.62
419.869	3489.62
419.979	3397.62
420.089	3454.62
420.199	3355.62
420.309	3415.62
420.419	3351.62
420.529	3415.62
420.639	3743.62
420.749	3505.62
420.859	3453.62
420.969	3598.62
421.079	3708.62
421.189	3567.62
421.299	3541.62
421.409	3433.62
421.519	3604.62
421.629	3669.62
421.739	3582.62
421.849	3587.62
421.959	3527.62
422.069	3676.62
422.179	3626.62
422.289	3664.62
422.399	3783.62
422.509	3798.62
422.619	6865.62
422.729	4042.62
422.838	3752.62
422.948	3827.62
423.058	3812.62
423.168	3875.62
423.278	3863.62
423.388	3999.62
423.498	4080.62
423.607	4068.62
423.717	4297.62
423.827	4341.62
423.937	4194.62
424.046	4215.62
424.156	4278.62
424.266	4112.62
424.376	4425.62
424.485	4422.62
424.595	4197.62
424.705	4271.62
424.815	4305.62
424.924	4668.62
425.034	4352.62
425.144	4257.62
425.253	4236.62
425.363	4361.62
425.473	4380.62
425.582	4361.62
425.692	4398.62
425.801	4325.62
425.911	4530.62
426.021	4406.62
426.13	4522.62
426.24	4748.62
426.349	4580.62
426.459	4550.62
426.568	4541.62
426.678	4700.62
426.787	4512.62
426.897	4537.62
427.006	4678.62
427.116	4701.62
427.225	4726.62
427.335	4842.62
427.444	4663.62
427.554	4678.62
427.663	4774.62
427.773	4793.62
427.882	4900.62
427.992	4855.62
428.101	4879.62
428.21	4699.62
428.32	4870.62
428.429	4975.62
428.539	5227.62
428.648	5030.62
428.757	5142.62
428.867	5101.62
428.976	5130.62
429.085	5178.62
429.195	5201.62
429.304	5076.62
429.413	5164.62
429.523	5282.62
429.632	5187.62
429.741	5248.62
429.85	5195.62
429.96	5303.62
430.069	5275.62
430.178	5446.62
430.287	5598.62
430.397	5392.62
430.506	5403.62
430.615	5300.62
430.724	5368.62
430.833	5447.62
430.943	5504.62
431.052	5448.62
431.161	5488.62
431.27	5593.62
431.379	5595.62
431.488	5903.62
431.597	5756.62
431.706	5847.62
431.816	5719.62
431.925	5779.62
432.034	5714.62
432.143	5676.62
432.252	5722.62
432.361	5875.62
432.47	5729.62
432.579	5720.62
432.688	5752.62
432.797	5797.62
432.906	5712.62
433.015	5839.62
433.124	6180.62
433.233	5867.62
433.342	5923.62
433.451	5897.62
433.56	5849.62
433.669	5842.62
433.778	5886.62
433.886	5953.62
433.995	5916.62
434.104	6031.62
434.213	6046.62
434.322	5938.62
434.431	6277.62
434.54	6271.62
434.649	6505.62
434.757	6532.62
434.866	6387.62
434.975	6276.62
435.084	6249.62
435.193	6090.62
435.301	6221.62
435.41	6193.62
435.519	6396.62
435.628	5711.62
435.737	5585.62
435.845	5561.62
435.954	5440.62
436.063	5476.62
436.171	5526.62
436.28	5514.62
436.389	5550.62
436.498	5428.62
436.606	5512.62
436.715	5585.62
436.823	5420.62
436.932	5336.62
437.041	5210.62
437.149	5232.62
437.258	5327.62
437.367	5030.62
437.475	5041.62
437.584	5393.62
437.692	5141.62
437.801	6451.62
437.91	5119.62
438.018	5083.62
438.127	4934.62
438.235	5083.62
438.344	5063.62
438.452	5022.62
438.561	4974.62
438.669	5005.62
438.778	4820.62
438.886	4928.62
438.995	4923.62
439.103	4933.62
439.212	4988.62
439.32	5081.62
439.428	4863.62
439.537	4954.62
439.645	5119.62
439.754	5016.62
439.862	4928.62
439.97	4993.62
440.079	5064.62
440.187	4975.62
440.295	5183.62
440.404	5067.62
440.512	5088.62
440.62	5109.62
440.729	5235.62
440.837	5217.62
440.945	5930.62
441.054	5297.62
441.162	5471.62
441.27	5446.62
441.378	5449.62
441.487	5566.62
441.595	5882.62
441.703	5591.62
441.811	5529.62
441.92	5384.62
442.028	5282.62
442.136	5320.62
442.244	5336.62
442.352	5218.62
442.461	5199.62
442.569	5264.62
442.677	5259.62
442.785	5377.62
442.893	5278.62
443.001	5198.62
443.109	5290.62
443.217	5216.62
443.325	5166.62
443.434	5799.62
443.542	5585.62
443.65	5400.62
443.758	5534.62
443.866	5444.62
443.974	5841.62
444.082	5702.62
444.19	5729.62
444.298	5931.62
444.406	6097.62
444.514	6097.62
444.622	6261.62
444.73	6186.62
444.838	6051.62
444.946	6153.62
445.054	5803.62
445.161	5756.62
445.269	5611.62
445.377	5740.62
445.485	5470.62
445.593	5352.62
445.701	5618.62
445.809	5426.62
445.917	5354.62
446.025	5309.62
446.132	5486.62
446.24	5487.62
446.348	5350.62
446.456	5427.62
446.564	5374.62
446.671	5376.62
446.779	5348.62
446.887	5347.62
446.995	5349.62
447.102	5395.62
447.21	5368.62
447.318	5273.62
447.426	5264.62
447.533	5543.62
447.641	6420.62
447.749	5409.62
447.856	5273.62
447.964	5370.62
448.072	5366.62
448.179	5198.62
448.287	5251.62
448.395	5314.62
448.502	5273.62
448.61	5270.62
448.718	5311.62
448.825	5372.62
448.933	5290.62
449.04	5368.62
449.148	5472.62
449.256	5342.62
449.363	5294.62
449.471	5459.62
449.578	5543.62
449.686	5420.62
449.793	5659.62
449.901	5603.62
450.008	5651.62
450.116	5716.62
450.223	5757.62
450.331	5825.62
450.438	5882.62
450.546	5931.62
450.653	5854.62
450.76	6173.62
450.868	6048.62
450.975	6260.62
451.083	6158.62
451.19	6145.62
451.297	6092.62
451.405	6124.62
451.512	6002.62
451.619	6282.62
451.727	6273.62
451.834	6203.62
451.941	6133.62
452.049	6091.62
452.156	6235.62
452.263	6354.62
452.371	6426.62
452.478	6372.62
452.585	6588.62
452.692	6431.62
452.8	6380.62
452.907	6623.62
453.014	6603.62
453.121	6503.62
453.229	6587.62
453.336	6652.62
453.443	6568.62
453.55	6498.62
453.657	6546.62
453.765	6648.62
453.872	6523.62
453.979	6763.62
454.086	6791.62
454.193	6806.62
454.3	6600.62
454.407	6867.62
454.514	6746.62
454.621	6803.62
454.729	6782.62
454.836	6735.62
454.943	6869.62
455.05	6909.62
455.157	7032.62
455.264	6880.62
455.371	6996.62
455.478	6987.62
455.585	8232.62
455.692	7191.62
455.799	7203.62
455.906	7045.62
456.013	7084.62
456.12	7124.62
456.227	7092.62
456.334	7199.62
456.44	7264.62
456.547	7303.62
456.654	7178.62
456.761	7359.62
456.868	7414.62
456.975	7374.62
457.082	7386.62
457.189	7299.62
457.296	7357.62
457.402	7459.62
457.509	7388.62
457.616	7444.62
457.723	7723.62
457.83	7818.62
457.936	7648.62
458.043	8198.62
458.15	7645.62
458.257	8024.62
458.363	7933.62
458.47	8157.62
458.577	8384.62
458.684	8221.62
458.79	8596.62
458.897	8669.62
459.004	8887.62
459.11	8711.62
459.217	8927.62
459.324	8901.62
459.43	8979.62
459.537	9437.62
459.644	9269.62
459.75	9213.62
459.857	9658.62
459.964	9537.62
460.07	9494.62
460.177	9651.62
460.283	9736.62
460.39	9942.62
460.496	9748.62
460.603	9864.62
460.71	9677.62
460.816	9693.62
460.923	9502.62
461.029	9645.62
461.136	9726.62
461.242	9589.62
461.349	9663.62
461.455	9770.62
461.562	10072.62
461.668	9994.62
461.774	9769.62
461.881	9907.62
461.987	10192.62
462.094	10363.62
462.2	10391.62
462.307	10361.62
462.413	10314.62
462.519	10546.62
462.626	11170.62
462.732	11230.62
462.838	11565.62
462.945	11783.62
463.051	11895.62
463.157	11697.62
463.264	11282.62
463.37	11115.62
463.476	10837.62
463.583	10745.62
463.689	10662.62
463.795	10629.62
463.901	10616.62
464.008	10928.62
464.114	10823.62
464.22	10693.62
464.326	10550.62
464.433	10382.62
464.539	10176.62
464.645	9995.62
464.751	9985.62
464.857	9729.62
464.963	9355.62
465.07	9051.62
465.176	8918.62
465.282	8639.62
465.388	8559.62
465.494	8182.62
465.6	7986.62
465.706	7882.62
465.812	7963.62
465.918	7820.62
466.024	7600.62
466.131	7691.62
466.237	7434.62
466.343	7337.62
466.449	7261.62
466.555	7218.62
466.661	6947.62
466.767	7008.62
466.873	7088.62
466.979	7097.62
467.085	6936.62
467.191	6967.62
467.296	6913.62
467.402	6807.62
467.508	6912.62
467.614	6994.62
467.72	6620.62
467.826	6484.62
467.932	6464.62
468.038	6416.62
468.144	6415.62
468.25	6455.62
468.355	6191.62
468.461	6308.62
468.567	6375.62
468.673	6269.62
468.779	6193.62
468.885	6228.62
468.99	6053.62
469.096	6107.62
469.202	6240.62
469.308	6183.62
469.413	6361.62
469.519	6331.62
469.625	6293.62
469.731	6355.62
469.836	6249.62
469.942	6575.62
470.048	6504.62
470.153	6367.62
470.259	6414.62
470.365	6430.62
470.47	6415.62
470.576	6326.62
470.682	6384.62
470.787	6175.62
470.893	6087.62
470.999	6170.62
471.104	6030.62
471.21	5885.62
471.315	5890.62
471.421	5777.62
471.527	5939.62
471.632	5841.62
471.738	5799.62
471.843	5562.62
471.949	5605.62
472.054	5604.62
472.16	5406.62
472.265	5419.62
472.371	5444.62
472.476	5385.62
472.582	5416.62
472.687	5454.62
472.793	5231.62
472.898	5313.62
473.003	5344.62
473.109	5124.62
473.214	5201.62
473.32	5286.62
473.425	5254.62
473.53	5223.62
473.636	5208.62
473.741	5103.62
473.847	5110.62
473.952	5158.62
474.057	5241.62
474.163	5284.62
474.268	5119.62
474.373	5310.62
474.478	5098.62
474.584	5079.62
474.689	5266.62
474.794	5169.62
474.9	5328.62
475.005	5153.62
475.11	5250.62
475.215	5101.62
475.321	5163.62
475.426	5334.62
475.531	5232.62
475.636	5164.62
475.741	5125.62
475.846	5421.62
475.952	5439.62
476.057	5338.62
476.162	5360.62
476.267	5391.62
476.372	5522.62
476.477	5233.62
476.582	5400.62
476.687	5209.62
476.793	5396.62
476.898	5325.62
477.003	5430.62
477.108	5477.62
477.213	5489.62
477.318	5487.62
477.423	5671.62
477.528	5629.62
477.633	5734.62
477.738	5704.62
477.843	5724.62
477.948	5843.62
478.053	5873.62
478.158	5945.62
478.263	5842.62
478.368	5891.62
478.473	6153.62
478.578	6048.62
478.682	6065.62
478.787	6201.62
478.892	6010.62
478.997	6117.62
479.102	6101.62
479.207	6081.62
479.312	6299.62
479.417	6242.62
479.521	6291.62
479.626	6371.62
479.731	6317.62
479.836	6291.62
479.941	6536.62
480.045	6556.62
480.15	6689.62
480.255	6561.62
480.36	6498.62
480.465	6766.62
480.569	6846.62
480.674	6525.62
480.779	6354.62
480.883	6590.62
480.988	6439.62
481.093	6451.62
481.197	6454.62
481.302	6299.62
481.407	6428.62
481.511	8246.62
481.616	6417.62
481.721	6353.62
481.825	6616.62
481.93	6341.62
482.035	6445.62
482.139	6450.62
482.244	6486.62
482.348	6362.62
482.453	6602.62
482.557	6627.62
482.662	6400.62
482.767	6529.62
482.871	6561.62
482.976	6685.62
483.08	6706.62
483.185	6934.62
483.289	6725.62
483.394	6659.62
483.498	6854.62
483.603	6907.62
483.707	6860.62
483.811	6934.62
483.916	7156.62
484.02	6970.62
484.125	7136.62
484.229	7190.62
484.333	7266.62
484.438	7194.62
484.542	7131.62
484.647	7237.62
484.751	7343.62
484.855	7344.62
484.96	7448.62
485.064	7497.62
485.168	7593.62
485.273	7673.62
485.377	7664.62
485.481	7874.62
485.585	7698.62
485.69	7737.62
485.794	7718.62
485.898	7783.62
486.002	7839.62
486.107	7915.62
486.211	7809.62
486.315	7967.62
486.419	7874.62
486.524	7931.62
486.628	8003.62
486.732	7913.62
486.836	7931.62
486.94	8005.62
487.044	7819.62
487.148	7882.62
487.253	7892.62
487.357	7990.62
487.461	8168.62
487.565	7975.62
487.669	7909.62
487.773	7840.62
487.877	8075.62
487.981	8055.62
488.085	7860.62
488.189	7872.62
488.293	8018.62
488.397	8246.62
488.501	7999.62
488.605	7986.62
488.709	8026.62
488.813	8004.62
488.917	7715.62
489.021	7933.62
489.125	8092.62
489.229	7853.62
489.333	8222.62
489.437	8022.62
489.541	8001.62
489.645	7996.62
489.749	7998.62
489.853	7974.62
489.956	7990.62
490.06	8027.62
490.164	8133.62
490.268	8000.62
490.372	7975.62
490.476	8011.62
490.579	7940.62
490.683	8680.62
490.787	8059.62
490.891	8003.62
490.995	8221.62
491.098	8006.62
491.202	7975.62
491.306	8056.62
491.41	7935.62
491.513	7985.62
491.617	8056.62
491.721	8127.62
491.824	8155.62
491.928	7974.62
492.032	8304.62
492.136	8078.62
492.239	8052.62
492.343	8005.62
492.446	8462.62
492.55	8000.62
492.654	7954.62
492.757	7954.62
492.861	8003.62
492.965	8006.62
493.068	8000.62
493.172	8086.62
493.275	7999.62
493.379	8125.62
493.482	8043.62
493.586	8084.62
493.689	8151.62
493.793	8151.62
493.896	8187.62
494	8146.62
494.103	8070.62
494.207	8312.62
494.31	8485.62
494.414	8103.62
494.517	7983.62
494.621	8001.62
494.724	7936.62
494.828	8002.62
494.931	7898.62
495.034	8004.62
495.138	7951.62
495.241	7710.62
495.345	8659.62
495.448	8051.62
495.551	7861.62
495.655	7826.62
495.758	7867.62
495.861	7738.62
495.965	7846.62
496.068	7836.62
496.171	7889.62
496.274	7906.62
496.378	7888.62
496.481	8009.62
496.584	7890.62
496.687	8174.62
496.791	8037.62
496.894	8053.62
496.997	8007.62
497.1	8217.62
497.204	8147.62
497.307	8158.62
497.41	8341.62
497.513	8435.62
497.616	8502.62
497.719	8451.62
497.823	8667.62
497.926	8679.62
498.029	8874.62
498.132	8701.62
498.235	9040.62
498.338	9345.62
498.441	9490.62
498.544	9502.62
498.647	9947.62
498.75	10093.62
498.853	10554.62
498.956	10506.62
499.059	10952.62
499.163	11224.62
499.266	11514.62
499.369	11952.62
499.471	12303.62
499.574	12843.62
499.677	13298.62
499.78	13854.62
499.883	14540.62
499.986	14540.62
500.089	14540.62
500.192	14540.62
500.295	14540.62
500.398	14540.62
500.501	14540.62
500.604	14540.62
500.707	14540.62
500.809	14137.62
500.912	13696.62
501.015	13218.62
501.118	12398.62
501.221	12007.62
501.324	11387.62
501.426	11000.62
501.529	10570.62
501.632	10251.62
501.735	9930.62
501.837	9621.62
501.94	9281.62
502.043	9287.62
502.146	8931.62
502.248	8868.62
502.351	8608.62
502.454	8412.62
502.557	8178.62
502.659	8169.62
502.762	7848.62
502.865	7615.62
502.967	7546.62
503.07	7546.62
503.173	7432.62
503.275	7267.62
503.378	7263.62
503.48	7046.62
503.583	7114.62
503.686	7043.62
503.788	7310.62
503.891	6982.62
503.993	7315.62
504.096	7027.62
504.198	7103.62
504.301	6981.62
504.403	7056.62
504.506	6875.62
504.608	6767.62
504.711	6729.62
504.813	6644.62
504.916	6418.62
505.018	6341.62
505.121	6237.62
505.223	6238.62
505.326	6127.62
505.428	6021.62
505.531	5930.62
505.633	5882.62
505.735	5712.62
505.838	5688.62
505.94	5714.62
506.042	5660.62
506.145	5567.62
506.247	5631.62
506.35	5539.62
506.452	5674.62
506.554	5539.62
506.656	5549.62
506.759	5435.62
506.861	5470.62
506.963	5300.62
507.066	5423.62
507.168	5475.62
507.27	5309.62
507.372	5264.62
507.475	5227.62
507.577	5291.62
507.679	5280.62
507.781	5138.62
507.883	5161.62
507.986	5163.62
508.088	5164.62
508.19	5104.62
508.292	5230.62
508.394	5064.62
508.496	5040.62
508.598	5073.62
508.701	5061.62
508.803	5059.62
508.905	4970.62
509.007	4978.62
509.109	5046.62
509.211	5030.62
509.313	5092.62
509.415	5007.62
509.517	5007.62
509.619	4894.62
509.721	5107.62
509.823	4843.62
509.925	5111.62
510.027	4884.62
510.129	4986.62
510.231	4971.62
510.333	4840.62
510.435	4836.62
510.537	4958.62
510.639	4984.62
510.741	4861.62
510.843	4929.62
510.945	4832.62
511.047	4975.62
511.148	4873.62
511.25	4831.62
511.352	4954.62
511.454	4916.62
511.556	4980.62
511.658	4884.62
511.76	4959.62
511.861	5039.62
511.963	4857.62
512.065	4891.62
512.167	4899.62
512.268	5232.62
512.37	4978.62
512.472	4869.62
512.574	4974.62
512.676	5026.62
512.777	4830.62
512.879	4838.62
512.981	4899.62
513.082	4800.62
513.184	4930.62
513.286	5452.62
513.387	5097.62
513.489	5234.62
513.591	5087.62
513.692	5085.62
513.794	5151.62
513.896	4858.62
513.997	4992.62
514.099	4983.62
514.2	5167.62
514.302	5095.62
514.404	5189.62
514.505	5180.62
514.607	5227.62
514.708	5126.62
514.81	5196.62
514.911	5311.62
515.013	5319.62
515.114	5283.62
515.216	5253.62
515.317	5374.62
515.419	5280.62
515.52	5537.62
515.622	5458.62
515.723	5466.62
515.825	5743.62
515.926	5687.62
516.027	5677.62
516.129	5617.62
516.23	5826.62
516.332	5907.62
516.433	5973.62
516.534	5927.62
516.636	6056.62
516.737	6074.62
516.838	7323.62
516.94	6590.62
517.041	6485.62
517.142	6739.62
517.244	6947.62
517.345	6785.62
517.446	6946.62
517.547	6971.62
517.649	6954.62
517.75	6845.62
517.851	6984.62
517.952	7209.62
518.054	6821.62
518.155	6842.62
518.256	6693.62
518.357	6638.62
518.458	6395.62
518.56	6469.62
518.661	6301.62
518.762	6247.62
518.863	6342.62
518.964	6151.62
519.065	6021.62
519.166	6034.62
519.268	5956.62
519.369	6194.62
519.47	5930.62
519.571	5896.62
519.672	5767.62
519.773	5776.62
519.874	5869.62
519.975	5788.62
520.076	5742.62
520.177	5842.62
520.278	5771.62
520.379	5683.62
520.48	5606.62
520.581	5633.62
520.682	5661.62
520.783	5598.62
520.884	5803.62
520.985	5590.62
521.086	5569.62
521.187	5703.62
521.288	5510.62
521.389	5648.62
521.489	5544.62
521.59	5513.62
521.691	5626.62
521.792	5603.62
521.893	5665.62
521.994	5501.62
522.095	5576.62
522.195	5624.62
522.296	5601.62
522.397	5692.62
522.498	5554.62
522.599	5495.62
522.699	5474.62
522.8	5515.62
522.901	5696.62
523.002	5441.62
523.102	5744.62
523.203	5549.62
523.304	5653.62
523.405	5585.62
523.505	5543.62
523.606	5649.62
523.707	5526.62
523.807	5555.62
523.908	5497.62
524.009	5614.62
524.109	5594.62
524.21	5478.62
524.31	5689.62
524.411	5698.62
524.512	5714.62
524.612	5657.62
524.713	5732.62
524.813	5661.62
524.914	5863.62
525.014	10785.62
525.115	5999.62
525.216	5520.62
525.316	5499.62
525.417	5588.62
525.517	5533.62
525.618	5463.62
525.718	5659.62
525.819	5595.62
525.919	5622.62
526.019	5510.62
526.12	5652.62
526.22	5506.62
526.321	5496.62
526.421	5493.62
526.522	5488.62
526.622	5468.62
526.722	5537.62
526.823	5433.62
526.923	5541.62
527.023	5574.62
527.124	5503.62
527.224	5633.62
527.324	5504.62
527.425	5609.62
527.525	5411.62
527.625	5485.62
527.726	5539.62
527.826	5609.62
527.926	5521.62
528.026	5538.62
528.127	5473.62
528.227	5524.62
528.327	5559.62
528.427	5539.62
528.528	5537.62
528.628	5556.62
528.728	5568.62
528.828	5550.62
528.928	5579.62
529.029	5524.62
529.129	5478.62
529.229	5475.62
529.329	5463.62
529.429	5516.62
529.529	5553.62
529.629	5401.62
529.729	5321.62
529.829	5495.62
529.93	5298.62
530.03	5486.62
530.13	5379.62
530.23	5402.62
530.33	5350.62
530.43	5186.62
530.53	5321.62
530.63	5341.62
530.73	5309.62
530.83	5187.62
530.93	5226.62
531.03	5176.62
531.13	5357.62
531.23	5181.62
531.33	5245.62
531.429	5235.62
531.529	5135.62
531.629	5268.62
531.729	5191.62
531.829	5211.62
531.929	5194.62
532.029	5208.62
532.129	5161.62
532.229	5139.62
532.328	5165.62
532.428	5046.62
532.528	4988.62
532.628	5018.62
532.728	5063.62
532.827	4996.62
532.927	5250.62
533.027	5086.62
533.127	5164.62
533.227	5187.62
533.326	5088.62
533.426	4891.62
533.526	5131.62
533.625	5087.62
533.725	5206.62
533.825	4931.62
533.924	4779.62
534.024	4766.62
534.124	4791.62
534.223	4882.62
534.323	5168.62
534.423	4867.62
534.522	4858.62
534.622	4707.62
534.722	4756.62
534.821	4797.62
534.921	4698.62
535.02	4600.62
535.12	4784.62
535.219	4858.62
535.319	4733.62
535.419	4712.62
535.518	4661.62
535.618	4659.62
535.717	4707.62
535.817	4534.62
535.916	4470.62
536.016	4543.62
536.115	4503.62
536.215	4419.62
536.314	4373.62
536.413	4327.62
536.513	4317.62
536.612	4307.62
536.712	4281.62
536.811	4385.62
536.91	4206.62
537.01	4217.62
537.109	4423.62
537.209	4279.62
537.308	4207.62
537.407	4246.62
537.507	4236.62
537.606	4153.62
