Data from 7g_HRC06701__0__122.txt Node

Date: Thu Apr 18 01:49:49 CDT 2024
User: Estudiantes 2
Spectrometer: HR+C0670
Trigger mode: 4
Integration Time (sec): 1.000000E0
Scans to average: 1
Electric dark correction enabled: true
Nonlinearity correction enabled: false
Boxcar width: 0
XAxis mode: Wavelengths
Number of Pixels in Spectrum: 2048
>>>>>Begin Spectral Data<<<<<
407.81	-113.5
407.921	-113.5
408.032	-113.5
408.143	-125.5
408.254	-127.5
408.365	36.5
408.476	205.5
408.587	-39.5
408.699	43.5
408.81	-32.5
408.921	-20.5
409.032	14.5
409.143	20.5
409.254	21.5
409.365	112.5
409.476	-30.5
409.587	-19.5
409.698	54.5
409.809	109.5
409.92	-32.5
410.031	-20.5
410.142	111.5
410.253	46.5
410.364	41.5
410.475	347.5
410.585	1567.5
410.696	1776.5
410.807	1722.5
410.918	1694.5
411.029	1760.5
411.14	1728.5
411.251	1761.5
411.362	1805.5
411.472	1806.5
411.583	1753.5
411.694	1833.5
411.805	1795.5
411.916	1868.5
412.026	1852.5
412.137	1805.5
412.248	1792.5
412.359	1803.5
412.47	1769.5
412.58	1693.5
412.691	1772.5
412.802	1751.5
412.912	1715.5
413.023	1837.5
413.134	1719.5
413.245	1860.5
413.355	1760.5
413.466	1705.5
413.577	1709.5
413.687	1851.5
413.798	1641.5
413.909	1820.5
414.019	1842.5
414.13	1820.5
414.24	1779.5
414.351	1794.5
414.462	2044.5
414.572	1836.5
414.683	1809.5
414.793	1783.5
414.904	2066.5
415.014	1807.5
415.125	1726.5
415.235	1823.5
415.346	1859.5
415.456	1908.5
415.567	1785.5
415.677	1742.5
415.788	1817.5
415.898	1768.5
416.009	1695.5
416.119	1835.5
416.23	1874.5
416.34	1728.5
416.45	1776.5
416.561	2421.5
416.671	1793.5
416.782	1684.5
416.892	1753.5
417.002	1757.5
417.113	1788.5
417.223	1791.5
417.333	1793.5
417.444	1803.5
417.554	1807.5
417.664	1877.5
417.775	1732.5
417.885	1883.5
417.995	1915.5
418.106	2045.5
418.216	1885.5
418.326	1972.5
418.436	1981.5
418.547	1931.5
418.657	1902.5
418.767	2079.5
418.877	1913.5
418.987	1998.5
419.098	2009.5
419.208	1997.5
419.318	2056.5
419.428	2147.5
419.538	1948.5
419.648	2057.5
419.759	2053.5
419.869	2062.5
419.979	2002.5
420.089	1998.5
420.199	2055.5
420.309	2029.5
420.419	2059.5
420.529	2083.5
420.639	2353.5
420.749	2161.5
420.859	2128.5
420.969	2062.5
421.079	2241.5
421.189	2148.5
421.299	2045.5
421.409	1999.5
421.519	2142.5
421.629	2225.5
421.739	2040.5
421.849	2080.5
421.959	2158.5
422.069	2156.5
422.179	2142.5
422.289	2264.5
422.399	2175.5
422.509	2230.5
422.619	5261.5
422.729	2496.5
422.838	2204.5
422.948	2353.5
423.058	2290.5
423.168	2257.5
423.278	2292.5
423.388	2395.5
423.498	2399.5
423.607	2352.5
423.717	2699.5
423.827	2607.5
423.937	2463.5
424.046	2490.5
424.156	2506.5
424.266	2453.5
424.376	2687.5
424.485	2633.5
424.595	2527.5
424.705	2498.5
424.815	2552.5
424.924	2949.5
425.034	2571.5
425.144	2556.5
425.253	2525.5
425.363	2642.5
425.473	2697.5
425.582	2598.5
425.692	2588.5
425.801	2651.5
425.911	2800.5
426.021	2693.5
426.13	2818.5
426.24	2955.5
426.349	2784.5
426.459	2758.5
426.568	2780.5
426.678	2846.5
426.787	2785.5
426.897	2796.5
427.006	2862.5
427.116	2940.5
427.225	2829.5
427.335	2981.5
427.444	2808.5
427.554	2865.5
427.663	2938.5
427.773	2874.5
427.882	2975.5
427.992	2918.5
428.101	2993.5
428.21	2907.5
428.32	3100.5
428.429	2976.5
428.539	3283.5
428.648	3033.5
428.757	3125.5
428.867	3141.5
428.976	3217.5
429.085	3137.5
429.195	3104.5
429.304	3117.5
429.413	3195.5
429.523	3167.5
429.632	3171.5
429.741	3203.5
429.85	3155.5
429.96	3233.5
430.069	3184.5
430.178	3216.5
430.287	3474.5
430.397	3292.5
430.506	3333.5
430.615	3219.5
430.724	3366.5
430.833	3407.5
430.943	3322.5
431.052	3324.5
431.161	3395.5
431.27	3387.5
431.379	3440.5
431.488	3669.5
431.597	3562.5
431.706	3605.5
431.816	3530.5
431.925	3573.5
432.034	3483.5
432.143	3533.5
432.252	3562.5
432.361	3570.5
432.47	3588.5
432.579	3576.5
432.688	3534.5
432.797	3470.5
432.906	3493.5
433.015	3589.5
433.124	3836.5
433.233	3688.5
433.342	3579.5
433.451	3633.5
433.56	3611.5
433.669	3722.5
433.778	3613.5
433.886	3734.5
433.995	3650.5
434.104	3768.5
434.213	3746.5
434.322	3767.5
434.431	3915.5
434.54	3933.5
434.649	4030.5
434.757	3995.5
434.866	3820.5
434.975	3910.5
435.084	3868.5
435.193	3731.5
435.301	3954.5
435.41	3989.5
435.519	4107.5
435.628	3557.5
435.737	3599.5
435.845	3492.5
435.954	3318.5
436.063	3414.5
436.171	3410.5
436.28	3381.5
436.389	3530.5
436.498	3385.5
436.606	3441.5
436.715	3585.5
436.823	3394.5
436.932	3236.5
437.041	3215.5
437.149	3419.5
437.258	3266.5
437.367	3091.5
437.475	3110.5
437.584	3435.5
437.692	3154.5
437.801	4542.5
437.91	3361.5
438.018	3093.5
438.127	3045.5
438.235	3254.5
438.344	3193.5
438.452	3114.5
438.561	3082.5
438.669	3073.5
438.778	2981.5
438.886	3106.5
438.995	3031.5
439.103	3041.5
439.212	3060.5
439.32	3189.5
439.428	3019.5
439.537	3147.5
439.645	3230.5
439.754	3143.5
439.862	3058.5
439.97	3195.5
440.079	3106.5
440.187	3000.5
440.295	3340.5
440.404	3226.5
440.512	3180.5
440.62	3241.5
440.729	3329.5
440.837	3314.5
440.945	3870.5
441.054	3404.5
441.162	3344.5
441.27	3429.5
441.378	3388.5
441.487	3516.5
441.595	3777.5
441.703	3596.5
441.811	3387.5
441.92	3421.5
442.028	3277.5
442.136	3363.5
442.244	3361.5
442.352	3347.5
442.461	3233.5
442.569	3260.5
442.677	3258.5
442.785	3318.5
442.893	3281.5
443.001	3285.5
443.109	3288.5
443.217	3236.5
443.325	3178.5
443.434	3874.5
443.542	3594.5
443.65	3321.5
443.758	3552.5
443.866	3491.5
443.974	3688.5
444.082	3478.5
444.19	3685.5
444.298	3705.5
444.406	3760.5
444.514	3785.5
444.622	3778.5
444.73	3884.5
444.838	3646.5
444.946	3810.5
445.054	3623.5
445.161	3640.5
445.269	3538.5
445.377	3564.5
445.485	3585.5
445.593	3488.5
445.701	3618.5
445.809	3538.5
445.917	3463.5
446.025	3370.5
446.132	3533.5
446.24	3420.5
446.348	3467.5
446.456	3324.5
446.564	3413.5
446.671	3438.5
446.779	3272.5
446.887	3327.5
446.995	3408.5
447.102	3391.5
447.21	3403.5
447.318	3363.5
447.426	3279.5
447.533	3497.5
447.641	4520.5
447.749	3397.5
447.856	3318.5
447.964	3400.5
448.072	3452.5
448.179	3335.5
448.287	3404.5
448.395	3421.5
448.502	3326.5
448.61	3420.5
448.718	3446.5
448.825	3401.5
448.933	3377.5
449.04	3369.5
449.148	3468.5
449.256	3494.5
449.363	3480.5
449.471	3571.5
449.578	3558.5
449.686	3469.5
449.793	3662.5
449.901	3521.5
450.008	3570.5
450.116	3627.5
450.223	3565.5
450.331	3720.5
450.438	3660.5
450.546	3856.5
450.653	3833.5
450.76	3940.5
450.868	3878.5
450.975	4100.5
451.083	3791.5
451.19	3921.5
451.297	3905.5
451.405	3919.5
451.512	3954.5
451.619	4070.5
451.727	4069.5
451.834	3926.5
451.941	3875.5
452.049	3983.5
452.156	3915.5
452.263	4091.5
452.371	4026.5
452.478	4071.5
452.585	4221.5
452.692	4005.5
452.8	4161.5
452.907	4405.5
453.014	4115.5
453.121	4115.5
453.229	4185.5
453.336	4209.5
453.443	4281.5
453.55	4265.5
453.657	4213.5
453.765	4344.5
453.872	4275.5
453.979	4449.5
454.086	4233.5
454.193	4349.5
454.3	4303.5
454.407	4366.5
454.514	4443.5
454.621	4437.5
454.729	4322.5
454.836	4330.5
454.943	4477.5
455.05	4521.5
455.157	4480.5
455.264	4469.5
455.371	4578.5
455.478	4473.5
455.585	5710.5
455.692	4667.5
455.799	4683.5
455.906	4534.5
456.013	4543.5
456.12	4594.5
456.227	4543.5
456.334	4717.5
456.44	4788.5
456.547	4669.5
456.654	4655.5
456.761	4817.5
456.868	4820.5
456.975	4789.5
457.082	4815.5
457.189	4749.5
457.296	4764.5
457.402	4865.5
457.509	4869.5
457.616	4862.5
457.723	5140.5
457.83	4958.5
457.936	4968.5
458.043	5343.5
458.15	5010.5
458.257	5203.5
458.363	5216.5
458.47	5444.5
458.577	5437.5
458.684	5379.5
458.79	5637.5
458.897	5551.5
459.004	5624.5
459.11	5678.5
459.217	5794.5
459.324	5847.5
459.43	5936.5
459.537	6150.5
459.644	5868.5
459.75	6001.5
459.857	6492.5
459.964	6074.5
460.07	6117.5
460.177	6236.5
460.283	6346.5
460.39	6476.5
460.496	6245.5
460.603	6410.5
460.71	6238.5
460.816	6233.5
460.923	6167.5
461.029	6204.5
461.136	6396.5
461.242	6313.5
461.349	6331.5
461.455	6406.5
461.562	6603.5
461.668	6496.5
461.774	6377.5
461.881	6521.5
461.987	6498.5
462.094	6539.5
462.2	6700.5
462.307	6743.5
462.413	6685.5
462.519	6956.5
462.626	7366.5
462.732	7076.5
462.838	7274.5
462.945	7491.5
463.051	7623.5
463.157	7383.5
463.264	7266.5
463.37	7130.5
463.476	7122.5
463.583	7014.5
463.689	6878.5
463.795	7026.5
463.901	6922.5
464.008	7069.5
464.114	6825.5
464.22	6891.5
464.326	6965.5
464.433	6549.5
464.539	6703.5
464.645	6472.5
464.751	6514.5
464.857	6324.5
464.963	6029.5
465.07	6018.5
465.176	5772.5
465.282	5628.5
465.388	5763.5
465.494	5411.5
465.6	5421.5
465.706	5288.5
465.812	5150.5
465.918	5184.5
466.024	5131.5
466.131	4941.5
466.237	4902.5
466.343	4812.5
466.449	4714.5
466.555	4710.5
466.661	4532.5
466.767	4652.5
466.873	4603.5
466.979	4710.5
467.085	4634.5
467.191	4530.5
467.296	4522.5
467.402	4491.5
467.508	4507.5
467.614	4531.5
467.72	4413.5
467.826	4345.5
467.932	4181.5
468.038	4156.5
468.144	4300.5
468.25	4188.5
468.355	4145.5
468.461	4291.5
468.567	4154.5
468.673	4113.5
468.779	4157.5
468.885	4011.5
468.99	4090.5
469.096	4140.5
469.202	4203.5
469.308	4064.5
469.413	4191.5
469.519	4164.5
469.625	4124.5
469.731	4174.5
469.836	4212.5
469.942	4252.5
470.048	4244.5
470.153	4327.5
470.259	4170.5
470.365	4254.5
470.47	4217.5
470.576	4157.5
470.682	4144.5
470.787	4057.5
470.893	3968.5
470.999	4010.5
471.104	3935.5
471.21	3878.5
471.315	3778.5
471.421	3759.5
471.527	4012.5
471.632	3805.5
471.738	3710.5
471.843	3711.5
471.949	3756.5
472.054	3722.5
472.16	3674.5
472.265	3702.5
472.371	3569.5
472.476	3531.5
472.582	3662.5
472.687	3581.5
472.793	3476.5
472.898	3511.5
473.003	3481.5
473.109	3476.5
473.214	3461.5
473.32	3406.5
473.425	3479.5
473.53	3500.5
473.636	3488.5
473.741	3475.5
473.847	3420.5
473.952	3533.5
474.057	3516.5
474.163	3486.5
474.268	3397.5
474.373	3501.5
474.478	3442.5
474.584	3406.5
474.689	3438.5
474.794	3417.5
474.9	3684.5
475.005	3476.5
475.11	3595.5
475.215	3349.5
475.321	3420.5
475.426	3583.5
475.531	3553.5
475.636	3437.5
475.741	3337.5
475.846	3573.5
475.952	3739.5
476.057	3592.5
476.162	3575.5
476.267	3594.5
476.372	3740.5
476.477	3476.5
476.582	3636.5
476.687	3527.5
476.793	3433.5
476.898	3556.5
477.003	3682.5
477.108	3470.5
477.213	3578.5
477.318	3625.5
477.423	3696.5
477.528	3709.5
477.633	3801.5
477.738	3822.5
477.843	3801.5
477.948	3874.5
478.053	3878.5
478.158	3832.5
478.263	3800.5
478.368	3968.5
478.473	3933.5
478.578	3958.5
478.682	3917.5
478.787	4002.5
478.892	3949.5
478.997	4069.5
479.102	4103.5
479.207	4002.5
479.312	4158.5
479.417	4048.5
479.521	3985.5
479.626	4180.5
479.731	4177.5
479.836	4063.5
479.941	4320.5
480.045	4389.5
480.15	4268.5
480.255	4264.5
480.36	4267.5
480.465	4303.5
480.569	4444.5
480.674	4188.5
480.779	4191.5
480.883	4154.5
480.988	4236.5
481.093	4288.5
481.197	4073.5
481.302	4160.5
481.407	4280.5
481.511	5531.5
481.616	4232.5
481.721	4182.5
481.825	4372.5
481.93	4155.5
482.035	4203.5
482.139	4288.5
482.244	4210.5
482.348	4290.5
482.453	4282.5
482.557	4246.5
482.662	4241.5
482.767	4372.5
482.871	4310.5
482.976	4345.5
483.08	4415.5
483.185	4500.5
483.289	4350.5
483.394	4493.5
483.498	4510.5
483.603	4410.5
483.707	4498.5
483.811	4636.5
483.916	4616.5
484.02	4527.5
484.125	4788.5
484.229	4653.5
484.333	4772.5
484.438	4724.5
484.542	4700.5
484.647	4618.5
484.751	4752.5
484.855	4813.5
484.96	4749.5
485.064	4793.5
485.168	4881.5
485.273	4880.5
485.377	4935.5
485.481	5167.5
485.585	4927.5
485.69	4920.5
485.794	5091.5
485.898	5083.5
486.002	5025.5
486.107	5142.5
486.211	5070.5
486.315	5079.5
486.419	5038.5
486.524	5168.5
486.628	5131.5
486.732	5130.5
486.836	5065.5
486.94	5124.5
487.044	5117.5
487.148	5153.5
487.253	5033.5
487.357	5091.5
487.461	5396.5
487.565	5206.5
487.669	5137.5
487.773	5089.5
487.877	5224.5
487.981	5147.5
488.085	5162.5
488.189	5240.5
488.293	5295.5
488.397	5583.5
488.501	5322.5
488.605	5187.5
488.709	5134.5
488.813	5262.5
488.917	5196.5
489.021	5245.5
489.125	5478.5
489.229	5056.5
489.333	5386.5
489.437	5327.5
489.541	5311.5
489.645	5184.5
489.749	5346.5
489.853	5339.5
489.956	5298.5
490.06	5227.5
490.164	5317.5
490.268	5323.5
490.372	5327.5
490.476	5241.5
490.579	5378.5
490.683	5803.5
490.787	5446.5
490.891	5362.5
490.995	5317.5
491.098	5373.5
491.202	5334.5
491.306	5316.5
491.41	5298.5
491.513	5267.5
491.617	5376.5
491.721	5408.5
491.824	5517.5
491.928	5310.5
492.032	5489.5
492.136	5324.5
492.239	5342.5
492.343	5409.5
492.446	5732.5
492.55	5411.5
492.654	5268.5
492.757	5309.5
492.861	5369.5
492.965	5320.5
493.068	5326.5
493.172	5324.5
493.275	5370.5
493.379	5336.5
493.482	5446.5
493.586	5553.5
493.689	5522.5
493.793	5339.5
493.896	5473.5
494	5442.5
494.103	5448.5
494.207	5707.5
494.31	5880.5
494.414	5454.5
494.517	5357.5
494.621	5323.5
494.724	5423.5
494.828	5361.5
494.931	5345.5
495.034	5281.5
495.138	5500.5
495.241	5321.5
495.345	6020.5
495.448	5428.5
495.551	5254.5
495.655	5286.5
495.758	5211.5
495.861	5228.5
495.965	5434.5
496.068	5301.5
496.171	5429.5
496.274	5381.5
496.378	5314.5
496.481	5293.5
496.584	5444.5
496.687	5355.5
496.791	5477.5
496.894	5422.5
496.997	5356.5
497.1	5499.5
497.204	5569.5
497.307	5472.5
497.41	5698.5
497.513	5794.5
497.616	5702.5
497.719	5734.5
497.823	5793.5
497.926	5908.5
498.029	5903.5
498.132	6038.5
498.235	6087.5
498.338	6227.5
498.441	6345.5
498.544	6455.5
498.647	6542.5
498.75	6832.5
498.853	7042.5
498.956	7086.5
499.059	7297.5
499.163	7346.5
499.266	7734.5
499.369	7856.5
499.471	8140.5
499.574	8582.5
499.677	8810.5
499.78	9087.5
499.883	9332.5
499.986	9750.5
500.089	9938.5
500.192	10109.5
500.295	10155.5
500.398	9933.5
500.501	10049.5
500.604	9786.5
500.707	9419.5
500.809	9106.5
500.912	8909.5
501.015	8655.5
501.118	8225.5
501.221	7962.5
501.324	7599.5
501.426	7358.5
501.529	7029.5
501.632	6882.5
501.735	6624.5
501.837	6491.5
501.94	6247.5
502.043	6149.5
502.146	6037.5
502.248	5928.5
502.351	5749.5
502.454	5676.5
502.557	5594.5
502.659	5481.5
502.762	5239.5
502.865	5248.5
502.967	5167.5
503.07	5028.5
503.173	4974.5
503.275	4986.5
503.378	4880.5
503.48	4855.5
503.583	4977.5
503.686	4767.5
503.788	5025.5
503.891	4798.5
503.993	5029.5
504.096	4650.5
504.198	4814.5
504.301	4728.5
504.403	4621.5
504.506	4688.5
504.608	4586.5
504.711	4542.5
504.813	4558.5
504.916	4380.5
505.018	4254.5
505.121	4196.5
505.223	4194.5
505.326	4069.5
505.428	4098.5
505.531	4127.5
505.633	4054.5
505.735	3878.5
505.838	3901.5
505.94	3967.5
506.042	3717.5
506.145	3810.5
506.247	3955.5
506.35	3802.5
506.452	3809.5
506.554	3853.5
506.656	3826.5
506.759	3658.5
506.861	3722.5
506.963	3711.5
507.066	3758.5
507.168	3679.5
507.27	3696.5
507.372	3517.5
507.475	3548.5
507.577	3673.5
507.679	3582.5
507.781	3541.5
507.883	3591.5
507.986	3445.5
508.088	3501.5
508.19	3522.5
508.292	3501.5
508.394	3434.5
508.496	3326.5
508.598	3487.5
508.701	3454.5
508.803	3445.5
508.905	3433.5
509.007	3382.5
509.109	3474.5
509.211	3497.5
509.313	3397.5
509.415	3325.5
509.517	3454.5
509.619	3356.5
509.721	3482.5
509.823	3354.5
509.925	3563.5
510.027	3392.5
510.129	3362.5
510.231	3453.5
510.333	3328.5
510.435	3338.5
510.537	3406.5
510.639	3441.5
510.741	3295.5
510.843	3400.5
510.945	3327.5
511.047	3352.5
511.148	3412.5
511.25	3406.5
511.352	3380.5
511.454	3238.5
511.556	3445.5
511.658	3331.5
511.76	3393.5
511.861	3488.5
511.963	3264.5
512.065	3305.5
512.167	3301.5
512.268	3508.5
512.37	3424.5
512.472	3381.5
512.574	3445.5
512.676	3404.5
512.777	3296.5
512.879	3384.5
512.981	3300.5
513.082	3434.5
513.184	3401.5
513.286	3817.5
513.387	3470.5
513.489	3540.5
513.591	3473.5
513.692	3479.5
513.794	3493.5
513.896	3417.5
513.997	3350.5
514.099	3403.5
514.2	3517.5
514.302	3502.5
514.404	3466.5
514.505	3429.5
514.607	3560.5
514.708	3484.5
514.81	3549.5
514.911	3654.5
515.013	3587.5
515.114	3562.5
515.216	3634.5
515.317	3614.5
515.419	3569.5
515.52	3803.5
515.622	3788.5
515.723	3714.5
515.825	3918.5
515.926	3808.5
516.027	3785.5
516.129	3922.5
516.23	3879.5
516.332	3950.5
516.433	3971.5
516.534	4121.5
516.636	4084.5
516.737	4111.5
516.838	5206.5
516.94	4386.5
517.041	4349.5
517.142	4573.5
517.244	4575.5
517.345	4548.5
517.446	4520.5
517.547	4649.5
517.649	4580.5
517.75	4684.5
517.851	4644.5
517.952	4764.5
518.054	4484.5
518.155	4717.5
518.256	4449.5
518.357	4465.5
518.458	4327.5
518.56	4217.5
518.661	4186.5
518.762	4292.5
518.863	4312.5
518.964	4222.5
519.065	4162.5
519.166	4061.5
519.268	4001.5
519.369	4237.5
519.47	4010.5
519.571	4103.5
519.672	3965.5
519.773	4077.5
519.874	4044.5
519.975	3997.5
520.076	3941.5
520.177	4045.5
520.278	3914.5
520.379	3906.5
520.48	3848.5
520.581	3777.5
520.682	3789.5
520.783	3882.5
520.884	3889.5
520.985	3884.5
521.086	3885.5
521.187	3871.5
521.288	3759.5
521.389	3950.5
521.489	3733.5
521.59	3734.5
521.691	3833.5
521.792	3770.5
521.893	3977.5
521.994	3971.5
522.095	3843.5
522.195	3926.5
522.296	3949.5
522.397	3958.5
522.498	3755.5
522.599	3755.5
522.699	3870.5
522.8	3784.5
522.901	3909.5
523.002	3772.5
523.102	4065.5
523.203	3896.5
523.304	3936.5
523.405	3887.5
523.505	3769.5
523.606	3862.5
523.707	3908.5
523.807	3892.5
523.908	3879.5
524.009	3976.5
524.109	3908.5
524.21	3853.5
524.31	3986.5
524.411	3956.5
524.512	3842.5
524.612	3914.5
524.713	4046.5
524.813	3802.5
524.914	4060.5
525.014	8252.5
525.115	4092.5
525.216	3804.5
525.316	3892.5
525.417	3879.5
525.517	3886.5
525.618	3922.5
525.718	3808.5
525.819	3788.5
525.919	3883.5
526.019	3862.5
526.12	3809.5
526.22	3775.5
526.321	3811.5
526.421	3718.5
526.522	3720.5
526.622	3734.5
526.722	3766.5
526.823	3814.5
526.923	3783.5
527.023	3881.5
527.124	3727.5
527.224	3911.5
527.324	3756.5
527.425	3802.5
527.525	3737.5
527.625	3865.5
527.726	3727.5
527.826	3890.5
527.926	3806.5
528.026	3779.5
528.127	3779.5
528.227	3898.5
528.327	3873.5
528.427	3873.5
528.528	3869.5
528.628	3889.5
528.728	3773.5
528.828	3861.5
528.928	4002.5
529.029	3802.5
529.129	3813.5
529.229	3856.5
529.329	3797.5
529.429	3908.5
529.529	3937.5
529.629	3858.5
529.729	3817.5
529.829	3895.5
529.93	3678.5
530.03	3821.5
530.13	3676.5
530.23	3741.5
530.33	3691.5
530.43	3631.5
530.53	3784.5
530.63	3667.5
530.73	3643.5
530.83	3551.5
530.93	3587.5
531.03	3644.5
531.13	3686.5
531.23	3619.5
531.33	3583.5
531.429	3659.5
531.529	3655.5
531.629	3619.5
531.729	3484.5
531.829	3591.5
531.929	3582.5
532.029	3615.5
532.129	3616.5
532.229	3589.5
532.328	3442.5
532.428	3592.5
532.528	3451.5
532.628	3524.5
532.728	3482.5
532.827	3503.5
532.927	3571.5
533.027	3470.5
533.127	3594.5
533.227	3522.5
533.326	3549.5
533.426	3560.5
533.526	3686.5
533.625	3638.5
533.725	3713.5
533.825	3525.5
533.924	3333.5
534.024	3234.5
534.124	3344.5
534.223	3273.5
534.323	3785.5
534.423	3455.5
534.522	3420.5
534.622	3243.5
534.722	3266.5
534.821	3355.5
534.921	3367.5
535.02	3247.5
535.12	3358.5
535.219	3350.5
535.319	3329.5
535.419	3374.5
535.518	3199.5
535.618	3275.5
535.717	3272.5
535.817	3079.5
535.916	3020.5
536.016	3233.5
536.115	3035.5
536.215	3044.5
536.314	3033.5
536.413	3011.5
536.513	3019.5
536.612	3017.5
536.712	2923.5
536.811	3021.5
536.91	2987.5
537.01	2965.5
537.109	3032.5
537.209	2988.5
537.308	3002.5
537.407	2978.5
537.507	2960.5
537.606	2944.5
537.705	2968.5
537.805	2921.5
537.904	2782.5
538.003	2939.5
538.102	3004.5
538.202	2941.5
538.301	2935.5
538.4	2950.5
538.499	2902.5
538.599	3007.5
538.698	3116.5
538.797	2860.5
538.896	2961.5
538.995	2968.5
539.095	2846.5
539.194	3045.5
539.293	2921.5
539.392	2790.5
539.491	2822.5
539.59	2835.5
539.689	2913.5
539.789	2907.5
539.888	2723.5
539.987	2674.5
540.086	2740.5
540.185	2816.5
540.284	2833.5
540.383	2785.5
540.482	2775.5
540.581	2856.5
540.68	2749.5
540.779	2879.5
540.878	2836.5
540.977	2820.5
541.076	2799.5
541.175	2859.5
541.274	3035.5
541.373	2906.5
541.472	2855.5
541.571	2692.5
541.67	3826.5
541.769	2902.5
541.868	2751.5
541.966	2845.5
542.065	2744.5
542.164	2816.5
542.263	2667.5
542.362	2721.5
542.461	2780.5
542.56	2723.5
542.658	2704.5
542.757	2633.5
542.856	2617.5
542.955	2609.5
543.054	2591.5
543.152	2806.5
543.251	2663.5
543.35	2793.5
543.449	2749.5
543.547	2692.5
543.646	2624.5
543.745	2742.5
543.843	2770.5
543.942	2677.5
544.041	2717.5
544.14	2764.5
544.238	2692.5
544.337	2896.5
544.436	2728.5
544.534	2793.5
544.633	2725.5
544.731	2696.5
544.83	2639.5
544.929	2715.5
545.027	2638.5
545.126	2633.5
545.224	2732.5
545.323	2725.5
545.421	2679.5
545.52	2651.5
545.619	2719.5
545.717	2655.5
545.816	2704.5
545.914	2710.5
546.013	2932.5
546.111	2843.5
