Data from 7g_HRC06701__2__124.txt Node

Date: Thu Apr 18 01:49:51 CDT 2024
User: Estudiantes 2
Spectrometer: HR+C0670
Trigger mode: 4
Integration Time (sec): 1.000000E0
Scans to average: 1
Electric dark correction enabled: true
Nonlinearity correction enabled: false
Boxcar width: 0
XAxis mode: Wavelengths
Number of Pixels in Spectrum: 2048
>>>>>Begin Spectral Data<<<<<
407.81	-138.81
407.921	-138.81
408.032	-138.81
408.143	-71.81
408.254	-140.81
408.365	4.19
408.476	260.19
408.587	-22.81
408.699	-16.81
408.81	-41.81
408.921	-19.81
409.032	-37.81
409.143	47.19
409.254	51.19
409.365	60.19
409.476	-57.81
409.587	55.19
409.698	70.19
409.809	56.19
409.92	-28.81
410.031	-18.81
410.142	32.19
410.253	15.19
410.364	48.19
410.475	1651.19
410.585	7856.19
410.696	8353.19
410.807	8156.19
410.918	8180.19
411.029	8330.19
411.14	8346.19
411.251	8435.19
411.362	8451.19
411.472	8602.19
411.583	8384.19
411.694	8653.19
411.805	8546.19
411.916	8600.19
412.026	8515.19
412.137	8634.19
412.248	8422.19
412.359	8473.19
412.47	8522.19
412.58	8230.19
412.691	8469.19
412.802	8446.19
412.912	8273.19
413.023	8262.19
413.134	8292.19
413.245	8321.19
413.355	8438.19
413.466	8256.19
413.577	8379.19
413.687	8507.19
413.798	8189.19
413.909	8486.19
414.019	8435.19
414.13	8488.19
414.24	8461.19
414.351	8419.19
414.462	8692.19
414.572	8515.19
414.683	8493.19
414.793	8513.19
414.904	8751.19
415.014	8492.19
415.125	8284.19
415.235	8441.19
415.346	8629.19
415.456	8430.19
415.567	8325.19
415.677	8296.19
415.788	8358.19
415.898	8253.19
416.009	8275.19
416.119	8314.19
416.23	8290.19
416.34	8323.19
416.45	8312.19
416.561	8913.19
416.671	8339.19
416.782	8406.19
416.892	8515.19
417.002	8556.19
417.113	8685.19
417.223	8509.19
417.333	8397.19
417.444	8519.19
417.554	8697.19
417.664	8844.19
417.775	8606.19
417.885	8926.19
417.995	8665.19
418.106	9082.19
418.216	8966.19
418.326	9202.19
418.436	9217.19
418.547	9365.19
418.657	9214.19
418.767	9501.19
418.877	9465.19
418.987	9549.19
419.098	9503.19
419.208	9472.19
419.318	9589.19
419.428	9606.19
419.538	9366.19
419.648	9680.19
419.759	9506.19
419.869	9512.19
419.979	9646.19
420.089	9498.19
420.199	9424.19
420.309	9563.19
420.419	9610.19
420.529	9716.19
420.639	9853.19
420.749	9691.19
420.859	9835.19
420.969	9956.19
421.079	10056.19
421.189	9714.19
421.299	9807.19
421.409	9814.19
421.519	10002.19
421.629	10091.19
421.739	10028.19
421.849	10054.19
421.959	10256.19
422.069	10181.19
422.179	10239.19
422.289	10245.19
422.399	10517.19
422.509	10579.19
422.619	13344.19
422.729	10987.19
422.838	10764.19
422.948	10792.19
423.058	10844.19
423.168	10968.19
423.278	11016.19
423.388	11347.19
423.498	11474.19
423.607	11341.19
423.717	11707.19
423.827	11570.19
423.937	11673.19
424.046	11674.19
424.156	11701.19
424.266	11537.19
424.376	12050.19
424.485	11984.19
424.595	11958.19
424.705	11923.19
424.815	11997.19
424.924	12605.19
425.034	12098.19
425.144	12097.19
425.253	12097.19
425.363	12510.19
425.473	12377.19
425.582	12045.19
425.692	12371.19
425.801	12178.19
425.911	12511.19
426.021	12458.19
426.13	12765.19
426.24	12759.19
426.349	12825.19
426.459	12859.19
426.568	12842.19
426.678	12997.19
426.787	13149.19
426.897	12957.19
427.006	12988.19
427.116	13212.19
427.225	13141.19
427.335	13511.19
427.444	13380.19
427.554	13327.19
427.663	13496.19
427.773	13560.19
427.882	13638.19
427.992	13581.19
428.101	13772.19
428.21	13789.19
428.32	14013.19
428.429	13798.19
428.539	14326.19
428.648	14062.19
428.757	14092.19
428.867	14412.19
428.976	14471.19
429.085	14335.19
429.195	14485.19
429.304	14417.19
429.413	14536.19
429.523	14536.19
429.632	14536.19
429.741	14536.19
429.85	14510.19
429.96	14536.19
430.069	14536.19
430.178	14536.19
430.287	14536.19
430.397	14536.19
430.506	14536.19
430.615	14536.19
430.724	14536.19
430.833	14536.19
430.943	14536.19
431.052	14536.19
431.161	14536.19
431.27	14536.19
431.379	14536.19
431.488	14536.19
431.597	14536.19
431.706	14536.19
431.816	14536.19
431.925	14536.19
432.034	14536.19
432.143	14536.19
432.252	14536.19
432.361	14536.19
432.47	14536.19
432.579	14536.19
432.688	14536.19
432.797	14536.19
432.906	14536.19
433.015	14536.19
433.124	14536.19
433.233	14536.19
433.342	14536.19
433.451	14536.19
433.56	14536.19
433.669	14536.19
433.778	14536.19
433.886	14536.19
433.995	14536.19
434.104	14536.19
434.213	14536.19
434.322	14536.19
434.431	14536.19
434.54	14536.19
434.649	14536.19
434.757	14536.19
434.866	14536.19
434.975	14536.19
435.084	14536.19
435.193	14536.19
435.301	14536.19
435.41	14536.19
435.519	14536.19
435.628	14536.19
435.737	14536.19
435.845	14536.19
435.954	14536.19
436.063	14536.19
436.171	14536.19
436.28	14536.19
436.389	14536.19
436.498	14536.19
436.606	14536.19
436.715	14536.19
436.823	14536.19
436.932	14536.19
437.041	14536.19
437.149	14536.19
437.258	14529.19
437.367	14217.19
437.475	14252.19
437.584	14496.19
437.692	14306.19
437.801	14536.19
437.91	14162.19
438.018	14151.19
438.127	14068.19
438.235	13986.19
438.344	14107.19
438.452	14046.19
438.561	13936.19
438.669	14001.19
438.778	13829.19
438.886	13785.19
438.995	13829.19
439.103	14065.19
439.212	13854.19
439.32	13897.19
439.428	14001.19
439.537	13990.19
439.645	14044.19
439.754	14061.19
439.862	13643.19
439.97	13864.19
440.079	14085.19
440.187	14017.19
440.295	14238.19
440.404	14229.19
440.512	14158.19
440.62	14501.19
440.729	14390.19
440.837	14536.19
440.945	14536.19
441.054	14536.19
441.162	14536.19
441.27	14536.19
441.378	14536.19
441.487	14536.19
441.595	14536.19
441.703	14536.19
441.811	14536.19
441.92	14536.19
442.028	14536.19
442.136	14536.19
442.244	14536.19
442.352	14536.19
442.461	14518.19
442.569	14536.19
442.677	14536.19
442.785	14536.19
442.893	14536.19
443.001	14536.19
443.109	14536.19
443.217	14536.19
443.325	14536.19
443.434	14536.19
443.542	14536.19
443.65	14536.19
443.758	14536.19
443.866	14536.19
443.974	14536.19
444.082	14536.19
444.19	14536.19
444.298	14536.19
444.406	14536.19
444.514	14536.19
444.622	14536.19
444.73	14536.19
444.838	14536.19
444.946	14536.19
445.054	14536.19
445.161	14536.19
445.269	14536.19
445.377	14536.19
445.485	14536.19
445.593	14536.19
445.701	14536.19
445.809	14536.19
445.917	14536.19
446.025	14536.19
446.132	14536.19
446.24	14536.19
446.348	14536.19
446.456	14536.19
446.564	14536.19
446.671	14536.19
446.779	14536.19
446.887	14536.19
446.995	14536.19
447.102	14536.19
447.21	14536.19
447.318	14506.19
447.426	14524.19
447.533	14536.19
447.641	14536.19
447.749	14524.19
447.856	14536.19
447.964	14536.19
448.072	14536.19
448.179	14536.19
448.287	14536.19
448.395	14536.19
448.502	14536.19
448.61	14536.19
448.718	14536.19
448.825	14536.19
448.933	14536.19
449.04	14536.19
449.148	14536.19
449.256	14536.19
449.363	14536.19
449.471	14536.19
449.578	14536.19
449.686	14536.19
449.793	14536.19
449.901	14536.19
450.008	14536.19
450.116	14536.19
450.223	14536.19
450.331	14536.19
450.438	14536.19
450.546	14536.19
450.653	14536.19
450.76	14536.19
450.868	14536.19
450.975	14536.19
451.083	14536.19
451.19	14536.19
451.297	14536.19
451.405	14536.19
451.512	14536.19
451.619	14536.19
451.727	14536.19
451.834	14536.19
451.941	14536.19
452.049	14536.19
452.156	14536.19
452.263	14536.19
452.371	14536.19
452.478	14536.19
452.585	14536.19
452.692	14536.19
452.8	14536.19
452.907	14536.19
453.014	14536.19
453.121	14536.19
453.229	14536.19
453.336	14536.19
453.443	14536.19
453.55	14536.19
453.657	14536.19
453.765	14536.19
453.872	14536.19
453.979	14536.19
454.086	14536.19
454.193	14536.19
454.3	14536.19
454.407	14536.19
454.514	14536.19
454.621	14536.19
454.729	14536.19
454.836	14536.19
454.943	14536.19
455.05	14536.19
455.157	14536.19
455.264	14536.19
455.371	14536.19
455.478	14536.19
455.585	14536.19
455.692	14536.19
455.799	14536.19
455.906	14536.19
456.013	14536.19
456.12	14536.19
456.227	14536.19
456.334	14536.19
456.44	14536.19
456.547	14536.19
456.654	14536.19
456.761	14536.19
456.868	14536.19
456.975	14536.19
457.082	14536.19
457.189	14536.19
457.296	14536.19
457.402	14536.19
457.509	14536.19
457.616	14536.19
457.723	14536.19
457.83	14536.19
457.936	14536.19
458.043	14536.19
458.15	14536.19
458.257	14536.19
458.363	14536.19
458.47	14536.19
458.577	14536.19
458.684	14536.19
458.79	14536.19
458.897	14536.19
459.004	14536.19
459.11	14536.19
459.217	14536.19
459.324	14536.19
459.43	14536.19
459.537	14536.19
459.644	14536.19
459.75	14536.19
459.857	14536.19
459.964	14536.19
460.07	14536.19
460.177	14536.19
460.283	14536.19
460.39	14536.19
460.496	14536.19
460.603	14536.19
460.71	14536.19
460.816	14536.19
460.923	14536.19
461.029	14536.19
461.136	14536.19
461.242	14536.19
461.349	14536.19
461.455	14536.19
461.562	14536.19
461.668	14536.19
461.774	14536.19
461.881	14536.19
461.987	14536.19
462.094	14536.19
462.2	14536.19
462.307	14536.19
462.413	14536.19
462.519	14536.19
462.626	14536.19
462.732	14536.19
462.838	14536.19
462.945	14536.19
463.051	14536.19
463.157	14536.19
463.264	14536.19
463.37	14536.19
463.476	14536.19
463.583	14536.19
463.689	14536.19
463.795	14536.19
463.901	14536.19
464.008	14536.19
464.114	14536.19
464.22	14536.19
464.326	14536.19
464.433	14536.19
464.539	14536.19
464.645	14536.19
464.751	14536.19
464.857	14536.19
464.963	14536.19
465.07	14536.19
465.176	14536.19
465.282	14536.19
465.388	14536.19
465.494	14536.19
465.6	14536.19
465.706	14536.19
465.812	14536.19
465.918	14536.19
466.024	14536.19
466.131	14536.19
466.237	14536.19
466.343	14536.19
466.449	14536.19
466.555	14536.19
466.661	14536.19
466.767	14536.19
466.873	14536.19
466.979	14536.19
467.085	14536.19
467.191	14536.19
467.296	14536.19
467.402	14536.19
467.508	14536.19
467.614	14536.19
467.72	14536.19
467.826	14536.19
467.932	14536.19
468.038	14536.19
468.144	14536.19
468.25	14536.19
468.355	14536.19
468.461	14536.19
468.567	14536.19
468.673	14536.19
468.779	14536.19
468.885	14536.19
468.99	14536.19
469.096	14536.19
469.202	14536.19
469.308	14536.19
469.413	14536.19
469.519	14536.19
469.625	14536.19
469.731	14536.19
469.836	14536.19
469.942	14536.19
470.048	14536.19
470.153	14536.19
470.259	14536.19
470.365	14536.19
470.47	14536.19
470.576	14536.19
470.682	14536.19
470.787	14536.19
470.893	14536.19
470.999	14536.19
471.104	14536.19
471.21	14536.19
471.315	14536.19
471.421	14536.19
471.527	14536.19
471.632	14536.19
471.738	14536.19
471.843	14536.19
471.949	14536.19
472.054	14536.19
472.16	14536.19
472.265	14536.19
472.371	14536.19
472.476	14536.19
472.582	14536.19
472.687	14536.19
472.793	14536.19
472.898	14536.19
473.003	14536.19
473.109	14536.19
473.214	14536.19
473.32	14536.19
473.425	14536.19
473.53	14536.19
473.636	14536.19
473.741	14536.19
473.847	14536.19
473.952	14534.19
474.057	14536.19
474.163	14536.19
474.268	14536.19
474.373	14517.19
474.478	14500.19
474.584	14529.19
474.689	14478.19
474.794	14536.19
474.9	14536.19
475.005	14466.19
475.11	14536.19
475.215	14536.19
475.321	14536.19
475.426	14536.19
475.531	14536.19
475.636	14536.19
475.741	14536.19
475.846	14536.19
475.952	14536.19
476.057	14536.19
476.162	14536.19
476.267	14536.19
476.372	14536.19
476.477	14536.19
476.582	14536.19
476.687	14536.19
476.793	14536.19
476.898	14536.19
477.003	14536.19
477.108	14536.19
477.213	14536.19
477.318	14536.19
477.423	14536.19
477.528	14536.19
477.633	14536.19
477.738	14536.19
477.843	14536.19
477.948	14536.19
478.053	14536.19
478.158	14536.19
478.263	14536.19
478.368	14536.19
478.473	14536.19
478.578	14536.19
478.682	14536.19
478.787	14536.19
478.892	14536.19
478.997	14536.19
479.102	14536.19
479.207	14536.19
479.312	14536.19
479.417	14536.19
479.521	14536.19
479.626	14536.19
479.731	14536.19
479.836	14536.19
479.941	14536.19
480.045	14536.19
480.15	14536.19
480.255	14536.19
480.36	14536.19
480.465	14536.19
480.569	14536.19
480.674	14536.19
480.779	14536.19
480.883	14536.19
480.988	14536.19
481.093	14536.19
481.197	14536.19
481.302	14536.19
481.407	14536.19
481.511	14536.19
481.616	14536.19
481.721	14536.19
481.825	14536.19
481.93	14536.19
482.035	14536.19
482.139	14536.19
482.244	14536.19
482.348	14536.19
482.453	14536.19
482.557	14536.19
482.662	14536.19
482.767	14536.19
482.871	14536.19
482.976	14536.19
483.08	14536.19
483.185	14536.19
483.289	14536.19
483.394	14536.19
483.498	14536.19
483.603	14536.19
483.707	14536.19
483.811	14536.19
483.916	14536.19
484.02	14536.19
484.125	14536.19
484.229	14536.19
484.333	14536.19
484.438	14536.19
484.542	14536.19
484.647	14536.19
484.751	14536.19
484.855	14536.19
484.96	14536.19
485.064	14536.19
485.168	14536.19
485.273	14536.19
485.377	14536.19
485.481	14536.19
485.585	14536.19
485.69	14536.19
485.794	14536.19
485.898	14536.19
486.002	14536.19
486.107	14536.19
486.211	14536.19
486.315	14536.19
486.419	14536.19
486.524	14536.19
486.628	14536.19
486.732	14536.19
486.836	14536.19
486.94	14536.19
487.044	14536.19
487.148	14536.19
487.253	14536.19
487.357	14536.19
487.461	14536.19
487.565	14536.19
487.669	14536.19
487.773	14536.19
487.877	14536.19
487.981	14536.19
488.085	14536.19
488.189	14536.19
488.293	14536.19
488.397	14536.19
488.501	14536.19
488.605	14536.19
488.709	14536.19
488.813	14536.19
488.917	14536.19
489.021	14536.19
489.125	14536.19
489.229	14536.19
489.333	14536.19
489.437	14536.19
489.541	14536.19
489.645	14536.19
489.749	14536.19
489.853	14536.19
489.956	14536.19
490.06	14536.19
490.164	14536.19
490.268	14536.19
490.372	14536.19
490.476	14536.19
490.579	14536.19
490.683	14536.19
490.787	14536.19
490.891	14536.19
490.995	14536.19
491.098	14536.19
491.202	14536.19
491.306	14536.19
491.41	14536.19
491.513	14536.19
491.617	14536.19
491.721	14536.19
491.824	14536.19
491.928	14536.19
492.032	14536.19
492.136	14536.19
492.239	14536.19
492.343	14536.19
492.446	14536.19
492.55	14536.19
492.654	14536.19
492.757	14536.19
492.861	14536.19
492.965	14536.19
493.068	14536.19
493.172	14536.19
493.275	14536.19
493.379	14536.19
493.482	14536.19
493.586	14536.19
493.689	14536.19
493.793	14536.19
493.896	14536.19
494	14536.19
494.103	14536.19
494.207	14536.19
494.31	14536.19
494.414	14536.19
494.517	14536.19
494.621	14536.19
494.724	14536.19
494.828	14536.19
494.931	14536.19
495.034	14536.19
495.138	14536.19
495.241	14536.19
495.345	14536.19
495.448	14536.19
495.551	14536.19
495.655	14536.19
495.758	14536.19
495.861	14536.19
495.965	14536.19
496.068	14536.19
496.171	14536.19
496.274	14536.19
496.378	14536.19
496.481	14536.19
496.584	14536.19
496.687	14536.19
496.791	14536.19
496.894	14536.19
496.997	14536.19
497.1	14536.19
497.204	14536.19
497.307	14536.19
497.41	14536.19
497.513	14536.19
497.616	14536.19
497.719	14536.19
497.823	14536.19
497.926	14536.19
498.029	14536.19
498.132	14536.19
498.235	14536.19
498.338	14536.19
498.441	14536.19
498.544	14536.19
498.647	14536.19
498.75	14536.19
498.853	14536.19
498.956	14536.19
499.059	14536.19
499.163	14536.19
499.266	14536.19
499.369	14536.19
499.471	14536.19
499.574	14536.19
499.677	14536.19
499.78	14536.19
499.883	14536.19
499.986	14536.19
500.089	14536.19
500.192	14536.19
500.295	14536.19
500.398	14536.19
500.501	14536.19
500.604	14536.19
500.707	14536.19
500.809	14536.19
500.912	14536.19
501.015	14536.19
501.118	14536.19
501.221	14536.19
501.324	14536.19
501.426	14536.19
501.529	14536.19
501.632	14536.19
501.735	14536.19
501.837	14536.19
501.94	14536.19
502.043	14536.19
502.146	14536.19
502.248	14536.19
502.351	14536.19
502.454	14536.19
502.557	14536.19
502.659	14536.19
502.762	14536.19
502.865	14536.19
502.967	14536.19
503.07	14536.19
503.173	14536.19
503.275	14536.19
503.378	14536.19
503.48	14536.19
503.583	14536.19
503.686	14536.19
503.788	14536.19
503.891	14536.19
503.993	14536.19
504.096	14536.19
504.198	14536.19
504.301	14536.19
504.403	14536.19
504.506	14536.19
504.608	14536.19
504.711	14536.19
504.813	14536.19
504.916	14536.19
505.018	14536.19
505.121	14536.19
505.223	14536.19
505.326	14536.19
505.428	14536.19
505.531	14536.19
505.633	14536.19
505.735	14536.19
505.838	14536.19
505.94	14536.19
506.042	14536.19
506.145	14536.19
506.247	14536.19
506.35	14536.19
506.452	14536.19
506.554	14536.19
506.656	14536.19
506.759	14536.19
506.861	14536.19
506.963	14536.19
507.066	14536.19
507.168	14536.19
507.27	14536.19
507.372	14536.19
507.475	14536.19
507.577	14536.19
507.679	14536.19
507.781	14536.19
507.883	14536.19
507.986	14536.19
508.088	14536.19
508.19	14536.19
508.292	14492.19
508.394	14421.19
508.496	14429.19
508.598	14367.19
508.701	14530.19
508.803	14284.19
508.905	14235.19
509.007	14219.19
509.109	14340.19
509.211	14251.19
509.313	14171.19
509.415	14199.19
509.517	14046.19
509.619	14027.19
509.721	13984.19
509.823	13853.19
509.925	14174.19
510.027	13890.19
510.129	14065.19
510.231	14001.19
510.333	13976.19
510.435	13949.19
510.537	13884.19
510.639	13970.19
510.741	14013.19
510.843	13836.19
510.945	13678.19
511.047	13947.19
511.148	13912.19
511.25	13845.19
511.352	13818.19
511.454	13814.19
511.556	14032.19
511.658	13915.19
511.76	14015.19
511.861	14155.19
511.963	13919.19
512.065	13800.19
512.167	13780.19
512.268	14194.19
512.37	14022.19
512.472	13971.19
512.574	13979.19
512.676	14112.19
512.777	13845.19
512.879	14097.19
512.981	13893.19
513.082	13894.19
513.184	14046.19
513.286	14536.19
513.387	14191.19
513.489	14298.19
513.591	14190.19
513.692	14320.19
513.794	14481.19
513.896	14266.19
513.997	14411.19
514.099	14319.19
514.2	14536.19
514.302	14536.19
514.404	14536.19
514.505	14464.19
514.607	14536.19
514.708	14536.19
514.81	14536.19
514.911	14536.19
515.013	14536.19
515.114	14536.19
515.216	14536.19
515.317	14536.19
515.419	14536.19
515.52	14536.19
515.622	14536.19
515.723	14536.19
515.825	14536.19
515.926	14536.19
516.027	14536.19
516.129	14536.19
516.23	14536.19
516.332	14536.19
516.433	14536.19
516.534	14536.19
516.636	14536.19
516.737	14536.19
516.838	14536.19
516.94	14536.19
517.041	14536.19
517.142	14536.19
517.244	14536.19
517.345	14536.19
517.446	14536.19
517.547	14536.19
517.649	14536.19
517.75	14536.19
517.851	14536.19
517.952	14536.19
518.054	14536.19
518.155	14536.19
518.256	14536.19
518.357	14536.19
518.458	14536.19
518.56	14536.19
518.661	14536.19
518.762	14536.19
518.863	14536.19
518.964	14536.19
519.065	14536.19
519.166	14536.19
519.268	14536.19
519.369	14536.19
519.47	14536.19
519.571	14536.19
519.672	14536.19
519.773	14536.19
519.874	14536.19
519.975	14536.19
520.076	14536.19
520.177	14536.19
520.278	14536.19
520.379	14536.19
520.48	14536.19
520.581	14536.19
520.682	14536.19
520.783	14536.19
520.884	14536.19
520.985	14536.19
521.086	14536.19
521.187	14536.19
521.288	14536.19
521.389	14536.19
521.489	14536.19
521.59	14536.19
521.691	14536.19
521.792	14536.19
521.893	14536.19
521.994	14536.19
522.095	14536.19
522.195	14536.19
522.296	14536.19
522.397	14536.19
522.498	14536.19
522.599	14536.19
522.699	14536.19
522.8	14536.19
522.901	14536.19
523.002	14536.19
523.102	14536.19
523.203	14536.19
523.304	14536.19
523.405	14536.19
523.505	14536.19
523.606	14536.19
523.707	14536.19
523.807	14536.19
523.908	14536.19
524.009	14536.19
524.109	14536.19
524.21	14536.19
524.31	14536.19
524.411	14536.19
524.512	14536.19
524.612	14536.19
524.713	14536.19
524.813	14536.19
524.914	14536.19
525.014	14536.19
525.115	14536.19
525.216	14536.19
525.316	14536.19
525.417	14536.19
525.517	14536.19
525.618	14536.19
525.718	14536.19
525.819	14536.19
525.919	14536.19
526.019	14536.19
526.12	14536.19
526.22	14536.19
526.321	14536.19
526.421	14536.19
526.522	14536.19
526.622	14536.19
526.722	14536.19
526.823	14536.19
526.923	14536.19
527.023	14536.19
527.124	14536.19
527.224	14536.19
527.324	14536.19
527.425	14536.19
527.525	14536.19
527.625	14536.19
527.726	14536.19
527.826	14536.19
527.926	14536.19
528.026	14536.19
528.127	14536.19
528.227	14536.19
528.327	14536.19
528.427	14536.19
528.528	14536.19
528.628	14536.19
528.728	14536.19
528.828	14536.19
528.928	14536.19
529.029	14536.19
529.129	14536.19
529.229	14536.19
529.329	14536.19
529.429	14536.19
529.529	14536.19
529.629	14536.19
529.729	14536.19
529.829	14536.19
529.93	14536.19
530.03	14536.19
530.13	14536.19
530.23	14536.19
530.33	14536.19
530.43	14536.19
530.53	14536.19
530.63	14536.19
530.73	14536.19
530.83	14536.19
530.93	14536.19
531.03	14536.19
531.13	14536.19
531.23	14536.19
531.33	14536.19
