Data from 7g_HRC06701__27__149.txt Node

Date: Thu Apr 18 01:50:16 CDT 2024
User: Estudiantes 2
Spectrometer: HR+C0670
Trigger mode: 4
Integration Time (sec): 1.000000E0
Scans to average: 1
Electric dark correction enabled: true
Nonlinearity correction enabled: false
Boxcar width: 0
XAxis mode: Wavelengths
Number of Pixels in Spectrum: 2048
>>>>>Begin Spectral Data<<<<<
407.81	-109.19
407.921	-109.19
408.032	-109.19
408.143	-100.19
408.254	-151.19
408.365	21.81
408.476	261.81
408.587	-40.19
408.699	-20.19
408.81	-2.19
408.921	-50.19
409.032	-37.19
409.143	65.81
409.254	-0.19
409.365	91.81
409.476	11.81
409.587	1.81
409.698	55.81
409.809	86.81
409.92	5.81
410.031	-28.19
410.142	66.81
410.253	68.81
410.364	18.81
410.475	1411.81
410.585	6621.81
410.696	6969.81
410.807	6854.81
410.918	6931.81
411.029	6952.81
411.14	6961.81
411.251	7072.81
411.362	7069.81
411.472	7200.81
411.583	7032.81
411.694	7237.81
411.805	7181.81
411.916	7374.81
412.026	7312.81
412.137	7206.81
412.248	7204.81
412.359	7149.81
412.47	7028.81
412.58	6946.81
412.691	7054.81
412.802	6920.81
412.912	6924.81
413.023	7059.81
413.134	6975.81
413.245	6887.81
413.355	6962.81
413.466	7028.81
413.577	6929.81
413.687	7012.81
413.798	6791.81
413.909	7170.81
414.019	7080.81
414.13	6995.81
414.24	6939.81
414.351	7171.81
414.462	7258.81
414.572	7055.81
414.683	6984.81
414.793	7122.81
414.904	7389.81
415.014	7060.81
415.125	6983.81
415.235	7104.81
415.346	7290.81
415.456	7129.81
415.567	7047.81
415.677	6901.81
415.788	6942.81
415.898	6905.81
416.009	6829.81
416.119	7047.81
416.23	6987.81
416.34	6984.81
416.45	6854.81
416.561	7582.81
416.671	7078.81
416.782	6920.81
416.892	7023.81
417.002	7082.81
417.113	7301.81
417.223	7114.81
417.333	7092.81
417.444	7261.81
417.554	7185.81
417.664	7340.81
417.775	7269.81
417.885	7380.81
417.995	7351.81
418.106	7800.81
418.216	7449.81
418.326	7654.81
418.436	7846.81
418.547	7733.81
418.657	7717.81
418.767	7901.81
418.877	8026.81
418.987	7957.81
419.098	7950.81
419.208	7954.81
419.318	7979.81
419.428	7984.81
419.538	7914.81
419.648	8130.81
419.759	8068.81
419.869	7976.81
419.979	7995.81
420.089	7975.81
420.199	7990.81
420.309	7984.81
420.419	7973.81
420.529	7941.81
420.639	8215.81
420.749	8138.81
420.859	8076.81
420.969	8254.81
421.079	8480.81
421.189	8139.81
421.299	8218.81
421.409	8197.81
421.519	8407.81
421.629	8510.81
421.739	8410.81
421.849	8346.81
421.959	8456.81
422.069	8480.81
422.179	8488.81
422.289	8593.81
422.399	8928.81
422.509	8846.81
422.619	11740.81
422.729	9210.81
422.838	8955.81
422.948	9121.81
423.058	9052.81
423.168	9182.81
423.278	9296.81
423.388	9271.81
423.498	9701.81
423.607	9533.81
423.717	9780.81
423.827	9827.81
423.937	9585.81
424.046	9666.81
424.156	9821.81
424.266	9713.81
424.376	9947.81
424.485	10006.81
424.595	9949.81
424.705	9881.81
424.815	10018.81
424.924	10501.81
425.034	10210.81
425.144	10068.81
425.253	10123.81
425.363	10189.81
425.473	10267.81
425.582	10161.81
425.692	10265.81
425.801	10295.81
425.911	10544.81
426.021	10390.81
426.13	10553.81
426.24	10692.81
426.349	10725.81
426.459	10649.81
426.568	10651.81
426.678	10822.81
426.787	10801.81
426.897	10674.81
427.006	11120.81
427.116	11096.81
427.225	10860.81
427.335	11291.81
427.444	11178.81
427.554	11066.81
427.663	11297.81
427.773	11348.81
427.882	11271.81
427.992	11302.81
428.101	11388.81
428.21	11323.81
428.32	11684.81
428.429	11574.81
428.539	11863.81
428.648	11803.81
428.757	11746.81
428.867	11833.81
428.976	12131.81
429.085	11950.81
429.195	11920.81
429.304	11906.81
429.413	11905.81
429.523	12182.81
429.632	12086.81
429.741	11988.81
429.85	12067.81
429.96	12404.81
430.069	12257.81
430.178	12452.81
430.287	12865.81
430.397	12548.81
430.506	12364.81
430.615	12613.81
430.724	12620.81
430.833	12660.81
430.943	12663.81
431.052	12769.81
431.161	12790.81
431.27	12967.81
431.379	13042.81
431.488	13468.81
431.597	13252.81
431.706	13509.81
431.816	13560.81
431.925	13499.81
432.034	13379.81
432.143	13493.81
432.252	13161.81
432.361	13424.81
432.47	13265.81
432.579	13364.81
432.688	13346.81
432.797	13340.81
432.906	13227.81
433.015	13313.81
433.124	13596.81
433.233	13685.81
433.342	13463.81
433.451	13523.81
433.56	13474.81
433.669	13602.81
433.778	13612.81
433.886	13769.81
433.995	13661.81
434.104	14086.81
434.213	13847.81
434.322	14057.81
434.431	14493.81
434.54	14542.81
434.649	14542.81
434.757	14542.81
434.866	14542.81
434.975	14542.81
435.084	14314.81
435.193	14055.81
435.301	13962.81
435.41	13730.81
435.519	13841.81
435.628	13082.81
435.737	12848.81
435.845	13010.81
435.954	12696.81
436.063	12756.81
436.171	12762.81
436.28	12665.81
436.389	12891.81
436.498	12692.81
436.606	12819.81
436.715	12829.81
436.823	12439.81
436.932	12416.81
437.041	12131.81
437.149	12039.81
437.258	12022.81
437.367	11765.81
437.475	11908.81
437.584	12193.81
437.692	11714.81
437.801	13093.81
437.91	11794.81
438.018	11702.81
438.127	11482.81
438.235	11714.81
438.344	11752.81
438.452	11520.81
438.561	11396.81
438.669	11568.81
438.778	11283.81
438.886	11508.81
438.995	11246.81
439.103	11523.81
439.212	11471.81
439.32	11451.81
439.428	11532.81
439.537	11519.81
439.645	11589.81
439.754	11607.81
439.862	11426.81
439.97	11566.81
440.079	11696.81
440.187	11560.81
440.295	11796.81
440.404	11777.81
440.512	11760.81
440.62	11749.81
440.729	11938.81
440.837	12125.81
440.945	12832.81
441.054	12484.81
441.162	12391.81
441.27	12649.81
441.378	12893.81
441.487	12974.81
441.595	13192.81
441.703	12922.81
441.811	12617.81
441.92	12564.81
442.028	12095.81
442.136	12335.81
442.244	12361.81
442.352	12384.81
442.461	12026.81
442.569	12093.81
442.677	12083.81
442.785	12254.81
442.893	12146.81
443.001	12109.81
443.109	12006.81
443.217	12232.81
443.325	12310.81
443.434	12958.81
443.542	12621.81
443.65	12583.81
443.758	12718.81
443.866	12647.81
443.974	13197.81
444.082	13066.81
444.19	13524.81
444.298	13734.81
444.406	13925.81
444.514	14206.81
444.622	14266.81
444.73	14152.81
444.838	13964.81
444.946	13857.81
445.054	13361.81
445.161	13305.81
445.269	12902.81
445.377	12872.81
445.485	12744.81
445.593	12563.81
445.701	12603.81
445.809	12439.81
445.917	12555.81
446.025	12418.81
446.132	12518.81
446.24	12457.81
446.348	12419.81
446.456	12307.81
446.564	12261.81
446.671	12331.81
446.779	12224.81
446.887	12053.81
446.995	12005.81
447.102	12208.81
447.21	12052.81
447.318	11988.81
447.426	12076.81
447.533	12351.81
447.641	13251.81
447.749	12051.81
447.856	12027.81
447.964	12044.81
448.072	12174.81
448.179	12028.81
448.287	12003.81
448.395	12167.81
448.502	12088.81
448.61	11998.81
448.718	12107.81
448.825	12160.81
448.933	12077.81
449.04	12247.81
449.148	12323.81
449.256	12404.81
449.363	12199.81
449.471	12577.81
449.578	12640.81
449.686	12380.81
449.793	12891.81
449.901	12723.81
450.008	12815.81
450.116	12903.81
450.223	12951.81
450.331	13187.81
450.438	13158.81
450.546	13401.81
450.653	13491.81
450.76	13582.81
450.868	13578.81
450.975	13942.81
451.083	13775.81
451.19	13863.81
451.297	13705.81
451.405	13868.81
451.512	13950.81
451.619	14090.81
451.727	14187.81
451.834	14025.81
451.941	13981.81
452.049	14034.81
452.156	14106.81
452.263	14370.81
452.371	14361.81
452.478	14242.81
452.585	14342.81
452.692	14408.81
452.8	14424.81
452.907	14542.81
453.014	14542.81
453.121	14542.81
453.229	14542.81
453.336	14542.81
453.443	14542.81
453.55	14542.81
453.657	14542.81
453.765	14542.81
453.872	14542.81
453.979	14542.81
454.086	14542.81
454.193	14542.81
454.3	14542.81
454.407	14542.81
454.514	14542.81
454.621	14542.81
454.729	14542.81
454.836	14542.81
454.943	14542.81
455.05	14542.81
455.157	14542.81
455.264	14542.81
455.371	14542.81
455.478	14542.81
455.585	14542.81
455.692	14542.81
455.799	14542.81
455.906	14542.81
456.013	14542.81
456.12	14542.81
456.227	14542.81
456.334	14542.81
456.44	14542.81
456.547	14542.81
456.654	14542.81
456.761	14542.81
456.868	14542.81
456.975	14542.81
457.082	14542.81
457.189	14542.81
457.296	14542.81
457.402	14542.81
457.509	14542.81
457.616	14542.81
457.723	14542.81
457.83	14542.81
457.936	14542.81
458.043	14542.81
458.15	14542.81
458.257	14542.81
458.363	14542.81
458.47	14542.81
458.577	14542.81
458.684	14542.81
458.79	14542.81
458.897	14542.81
459.004	14542.81
459.11	14542.81
459.217	14542.81
459.324	14542.81
459.43	14542.81
459.537	14542.81
459.644	14542.81
459.75	14542.81
459.857	14542.81
459.964	14542.81
460.07	14542.81
460.177	14542.81
460.283	14542.81
460.39	14542.81
460.496	14542.81
460.603	14542.81
460.71	14542.81
460.816	14542.81
460.923	14542.81
461.029	14542.81
461.136	14542.81
461.242	14542.81
461.349	14542.81
461.455	14542.81
461.562	14542.81
461.668	14542.81
461.774	14542.81
461.881	14542.81
461.987	14542.81
462.094	14542.81
462.2	14542.81
462.307	14542.81
462.413	14542.81
462.519	14542.81
462.626	14542.81
462.732	14542.81
462.838	14542.81
462.945	14542.81
463.051	14542.81
463.157	14542.81
463.264	14542.81
463.37	14542.81
463.476	14542.81
463.583	14542.81
463.689	14542.81
463.795	14542.81
463.901	14542.81
464.008	14542.81
464.114	14542.81
464.22	14542.81
464.326	14542.81
464.433	14542.81
464.539	14542.81
464.645	14542.81
464.751	14542.81
464.857	14542.81
464.963	14542.81
465.07	14542.81
465.176	14542.81
465.282	14542.81
465.388	14542.81
465.494	14542.81
465.6	14542.81
465.706	14542.81
465.812	14542.81
465.918	14542.81
466.024	14542.81
466.131	14542.81
466.237	14542.81
466.343	14542.81
466.449	14542.81
466.555	14542.81
466.661	14542.81
466.767	14542.81
466.873	14542.81
466.979	14542.81
467.085	14542.81
467.191	14542.81
467.296	14542.81
467.402	14542.81
467.508	14542.81
467.614	14542.81
467.72	14542.81
467.826	14542.81
467.932	14542.81
468.038	14542.81
468.144	14542.81
468.25	14367.81
468.355	14437.81
468.461	14371.81
468.567	14435.81
468.673	14400.81
468.779	14307.81
468.885	14293.81
468.99	14136.81
469.096	14276.81
469.202	14391.81
469.308	14294.81
469.413	14484.81
469.519	14525.81
469.625	14502.81
469.731	14542.81
469.836	14542.81
469.942	14542.81
470.048	14542.81
470.153	14542.81
470.259	14542.81
470.365	14542.81
470.47	14542.81
470.576	14433.81
470.682	14448.81
470.787	14331.81
470.893	14067.81
470.999	14061.81
471.104	13867.81
471.21	13613.81
471.315	13456.81
471.421	13247.81
471.527	13378.81
471.632	13380.81
471.738	13000.81
471.843	12993.81
471.949	12671.81
472.054	12826.81
472.16	12656.81
472.265	12553.81
472.371	12586.81
472.476	12394.81
472.582	12434.81
472.687	12272.81
472.793	12281.81
472.898	12103.81
473.003	12307.81
473.109	12092.81
473.214	11987.81
473.32	12190.81
473.425	12064.81
473.53	12197.81
473.636	11913.81
473.741	11983.81
473.847	11793.81
473.952	11991.81
474.057	11943.81
474.163	11990.81
474.268	11815.81
474.373	12032.81
474.478	11791.81
474.584	11807.81
474.689	12113.81
474.794	11859.81
474.9	12197.81
475.005	11881.81
475.11	12155.81
475.215	11934.81
475.321	11909.81
475.426	12203.81
475.531	11930.81
475.636	11995.81
475.741	12058.81
475.846	12216.81
475.952	12347.81
476.057	12076.81
476.162	12268.81
476.267	12393.81
476.372	12452.81
476.477	12292.81
476.582	12303.81
476.687	12417.81
476.793	12537.81
476.898	12455.81
477.003	12457.81
477.108	12722.81
477.213	12724.81
477.318	12798.81
477.423	13123.81
477.528	13120.81
477.633	13257.81
477.738	13400.81
477.843	13396.81
477.948	13602.81
478.053	13716.81
478.158	13951.81
478.263	13767.81
478.368	13885.81
478.473	14073.81
478.578	14193.81
478.682	14107.81
478.787	14387.81
478.892	14266.81
478.997	14453.81
479.102	14499.81
479.207	14504.81
479.312	14482.81
479.417	14498.81
479.521	14542.81
479.626	14542.81
479.731	14542.81
479.836	14542.81
479.941	14542.81
480.045	14542.81
480.15	14542.81
480.255	14542.81
480.36	14542.81
480.465	14542.81
480.569	14542.81
480.674	14542.81
480.779	14542.81
480.883	14542.81
480.988	14542.81
481.093	14542.81
481.197	14542.81
481.302	14542.81
481.407	14542.81
481.511	14542.81
481.616	14542.81
481.721	14542.81
481.825	14542.81
481.93	14542.81
482.035	14542.81
482.139	14542.81
482.244	14542.81
482.348	14542.81
482.453	14542.81
482.557	14542.81
482.662	14542.81
482.767	14542.81
482.871	14542.81
482.976	14542.81
483.08	14542.81
483.185	14542.81
483.289	14542.81
483.394	14542.81
483.498	14542.81
483.603	14542.81
483.707	14542.81
483.811	14542.81
483.916	14542.81
484.02	14542.81
484.125	14542.81
484.229	14542.81
484.333	14542.81
484.438	14542.81
484.542	14542.81
484.647	14542.81
484.751	14542.81
484.855	14542.81
484.96	14542.81
485.064	14542.81
485.168	14542.81
485.273	14542.81
485.377	14542.81
485.481	14542.81
485.585	14542.81
485.69	14542.81
485.794	14542.81
485.898	14542.81
486.002	14542.81
486.107	14542.81
486.211	14542.81
486.315	14542.81
486.419	14542.81
486.524	14542.81
486.628	14542.81
486.732	14542.81
486.836	14542.81
486.94	14542.81
487.044	14542.81
487.148	14542.81
487.253	14542.81
487.357	14542.81
487.461	14542.81
487.565	14542.81
487.669	14542.81
487.773	14542.81
487.877	14542.81
487.981	14542.81
488.085	14542.81
488.189	14542.81
488.293	14542.81
488.397	14542.81
488.501	14542.81
488.605	14542.81
488.709	14542.81
488.813	14542.81
488.917	14542.81
489.021	14542.81
489.125	14542.81
489.229	14542.81
489.333	14542.81
489.437	14542.81
489.541	14542.81
489.645	14542.81
489.749	14542.81
489.853	14542.81
489.956	14542.81
490.06	14542.81
490.164	14542.81
490.268	14542.81
490.372	14542.81
490.476	14542.81
490.579	14542.81
490.683	14542.81
490.787	14542.81
490.891	14542.81
490.995	14542.81
491.098	14542.81
491.202	14542.81
491.306	14542.81
491.41	14542.81
491.513	14542.81
491.617	14542.81
491.721	14542.81
491.824	14542.81
491.928	14542.81
492.032	14542.81
492.136	14542.81
492.239	14542.81
492.343	14542.81
492.446	14542.81
492.55	14542.81
492.654	14542.81
492.757	14542.81
492.861	14542.81
492.965	14542.81
493.068	14542.81
493.172	14542.81
493.275	14542.81
493.379	14542.81
493.482	14542.81
493.586	14542.81
493.689	14542.81
493.793	14542.81
493.896	14542.81
494	14542.81
494.103	14542.81
494.207	14542.81
494.31	14542.81
494.414	14542.81
494.517	14542.81
494.621	14542.81
494.724	14542.81
494.828	14542.81
494.931	14542.81
495.034	14542.81
495.138	14542.81
495.241	14542.81
495.345	14542.81
495.448	14542.81
495.551	14542.81
495.655	14542.81
495.758	14542.81
495.861	14542.81
495.965	14542.81
496.068	14542.81
496.171	14542.81
496.274	14542.81
496.378	14542.81
496.481	14542.81
496.584	14542.81
496.687	14542.81
496.791	14542.81
496.894	14542.81
496.997	14542.81
497.1	14542.81
497.204	14542.81
497.307	14542.81
497.41	14542.81
497.513	14542.81
497.616	14542.81
497.719	14542.81
497.823	14542.81
497.926	14542.81
498.029	14542.81
498.132	14542.81
498.235	14542.81
498.338	14542.81
498.441	14542.81
498.544	14542.81
498.647	14542.81
498.75	14542.81
498.853	14542.81
498.956	14542.81
499.059	14542.81
499.163	14542.81
499.266	14542.81
499.369	14542.81
499.471	14542.81
499.574	14542.81
499.677	14542.81
499.78	14542.81
499.883	14542.81
499.986	14542.81
500.089	14542.81
500.192	14542.81
500.295	14542.81
500.398	14542.81
500.501	14542.81
500.604	14542.81
500.707	14542.81
500.809	14542.81
500.912	14542.81
501.015	14542.81
501.118	14542.81
501.221	14542.81
501.324	14542.81
501.426	14542.81
501.529	14542.81
501.632	14542.81
501.735	14542.81
501.837	14542.81
501.94	14542.81
502.043	14542.81
502.146	14542.81
502.248	14542.81
502.351	14542.81
502.454	14542.81
502.557	14542.81
502.659	14542.81
502.762	14542.81
502.865	14542.81
502.967	14542.81
503.07	14542.81
503.173	14542.81
503.275	14542.81
503.378	14542.81
503.48	14542.81
503.583	14542.81
503.686	14542.81
503.788	14542.81
503.891	14542.81
503.993	14542.81
504.096	14542.81
504.198	14542.81
504.301	14542.81
504.403	14542.81
504.506	14542.81
504.608	14542.81
504.711	14542.81
504.813	14542.81
504.916	14542.81
505.018	14542.81
505.121	14502.81
505.223	14542.81
505.326	14272.81
505.428	14266.81
505.531	13948.81
505.633	13917.81
505.735	13789.81
505.838	13677.81
505.94	13408.81
506.042	13340.81
506.145	13169.81
506.247	13323.81
506.35	13213.81
506.452	13223.81
506.554	12963.81
506.656	12969.81
506.759	12664.81
506.861	12859.81
506.963	12824.81
507.066	12752.81
507.168	12637.81
507.27	12677.81
507.372	12348.81
507.475	12458.81
507.577	12498.81
507.679	12362.81
507.781	12271.81
507.883	12146.81
507.986	12233.81
508.088	12143.81
508.19	12074.81
508.292	12176.81
508.394	12051.81
508.496	11918.81
508.598	11960.81
508.701	12064.81
508.803	11894.81
508.905	11916.81
509.007	11893.81
509.109	11789.81
509.211	11733.81
509.313	11844.81
509.415	11697.81
509.517	11770.81
509.619	11708.81
509.721	11787.81
509.823	11581.81
509.925	11796.81
510.027	11698.81
510.129	11475.81
510.231	11726.81
510.333	11518.81
510.435	11401.81
510.537	11616.81
510.639	11571.81
510.741	11690.81
510.843	11619.81
510.945	11510.81
511.047	11686.81
511.148	11632.81
511.25	11582.81
511.352	11552.81
511.454	11482.81
511.556	11642.81
511.658	11608.81
511.76	11739.81
511.861	11851.81
511.963	11540.81
512.065	11503.81
512.167	11532.81
512.268	11763.81
512.37	11673.81
512.472	11592.81
512.574	11606.81
512.676	11895.81
512.777	11523.81
512.879	11720.81
512.981	11622.81
513.082	11730.81
513.184	11759.81
513.286	12286.81
513.387	11828.81
513.489	11947.81
513.591	11959.81
513.692	12040.81
513.794	11960.81
513.896	11851.81
513.997	11884.81
514.099	11869.81
514.2	12129.81
514.302	12118.81
514.404	12192.81
514.505	12235.81
514.607	12461.81
514.708	12188.81
514.81	12391.81
514.911	12568.81
515.013	12576.81
515.114	12679.81
515.216	12512.81
515.317	12847.81
515.419	12716.81
515.52	12873.81
515.622	12912.81
515.723	12959.81
515.825	13435.81
515.926	13512.81
516.027	13400.81
516.129	13707.81
516.23	13877.81
516.332	14069.81
516.433	14091.81
516.534	14388.81
516.636	14542.81
516.737	14542.81
516.838	14542.81
516.94	14542.81
517.041	14542.81
517.142	14542.81
517.244	14542.81
517.345	14542.81
517.446	14542.81
517.547	14542.81
517.649	14542.81
517.75	14542.81
517.851	14542.81
517.952	14542.81
518.054	14542.81
518.155	14542.81
518.256	14542.81
518.357	14542.81
518.458	14542.81
518.56	14542.81
518.661	14542.81
518.762	14542.81
518.863	14542.81
518.964	14542.81
519.065	14434.81
519.166	14426.81
519.268	14430.81
519.369	14487.81
519.47	14106.81
519.571	14088.81
519.672	13977.81
519.773	13854.81
519.874	13837.81
519.975	13829.81
520.076	13791.81
520.177	13808.81
520.278	13678.81
520.379	13659.81
520.48	13487.81
520.581	13571.81
520.682	13345.81
520.783	13417.81
520.884	13520.81
520.985	13462.81
521.086	13495.81
521.187	13449.81
521.288	13369.81
521.389	13257.81
521.489	13283.81
521.59	13110.81
521.691	13181.81
521.792	13108.81
521.893	13247.81
521.994	13301.81
522.095	13225.81
522.195	13263.81
522.296	13288.81
522.397	13246.81
522.498	13218.81
522.599	13110.81
522.699	12983.81
522.8	13156.81
522.901	13220.81
523.002	13057.81
523.102	13427.81
523.203	13161.81
523.304	13329.81
523.405	13029.81
523.505	13156.81
523.606	13225.81
523.707	13292.81
523.807	13307.81
523.908	13080.81
524.009	13156.81
524.109	13219.81
524.21	13184.81
524.31	13163.81
524.411	13273.81
524.512	13403.81
524.612	13248.81
524.713	13301.81
524.813	13151.81
524.914	13612.81
525.014	14542.81
525.115	13663.81
525.216	13273.81
525.316	13204.81
525.417	13328.81
525.517	13163.81
525.618	13166.81
525.718	13233.81
525.819	13358.81
525.919	13279.81
526.019	13287.81
526.12	13218.81
526.22	13029.81
526.321	13218.81
526.421	13293.81
526.522	13264.81
526.622	13179.81
526.722	13261.81
526.823	13226.81
526.923	13246.81
527.023	13289.81
527.124	13211.81
527.224	13200.81
527.324	13056.81
527.425	13098.81
527.525	13070.81
527.625	13066.81
527.726	13126.81
527.826	13067.81
527.926	13078.81
528.026	13271.81
528.127	13064.81
528.227	13267.81
528.327	13277.81
528.427	13141.81
528.528	13143.81
528.628	13191.81
528.728	13034.81
528.828	13219.81
528.928	13157.81
529.029	13138.81
529.129	13075.81
529.229	13061.81
529.329	13155.81
529.429	13087.81
529.529	13155.81
529.629	12966.81
529.729	12829.81
529.829	13033.81
529.93	12799.81
530.03	12808.81
530.13	12861.81
530.23	12698.81
530.33	12838.81
530.43	12949.81
530.53	12739.81
530.63	12760.81
530.73	12732.81
530.83	12653.81
530.93	12784.81
531.03	12528.81
531.13	12677.81
531.23	12554.81
531.33	12762.81
531.429	12733.81
531.529	12601.81
