Data from 7g_HRC06701__33__155.txt Node

Date: Thu Apr 18 01:50:22 CDT 2024
User: Estudiantes 2
Spectrometer: HR+C0670
Trigger mode: 4
Integration Time (sec): 1.000000E0
Scans to average: 1
Electric dark correction enabled: true
Nonlinearity correction enabled: false
Boxcar width: 0
XAxis mode: Wavelengths
Number of Pixels in Spectrum: 2048
>>>>>Begin Spectral Data<<<<<
407.81	-159.06
407.921	-159.06
408.032	-159.06
408.143	-111.06
408.254	-112.06
408.365	6.94
408.476	265.94
408.587	-40.06
408.699	24.94
408.81	36.94
408.921	-51.06
409.032	-39.06
409.143	45.94
409.254	6.94
409.365	42.94
409.476	-3.06
409.587	36.94
409.698	47.94
409.809	96.94
409.92	-1.06
410.031	-47.06
410.142	48.94
410.253	47.94
410.364	11.94
410.475	1025.94
410.585	5234.94
410.696	5544.94
410.807	5332.94
410.918	5360.94
411.029	5572.94
411.14	5463.94
411.251	5428.94
411.362	5533.94
411.472	5540.94
411.583	5538.94
411.694	5674.94
411.805	5644.94
411.916	5627.94
412.026	5732.94
412.137	5599.94
412.248	5499.94
412.359	5579.94
412.47	5515.94
412.58	5409.94
412.691	5496.94
412.802	5419.94
412.912	5360.94
413.023	5387.94
413.134	5525.94
413.245	5466.94
413.355	5399.94
413.466	5393.94
413.577	5382.94
413.687	5543.94
413.798	5290.94
413.909	5399.94
414.019	5436.94
414.13	5461.94
414.24	5541.94
414.351	5511.94
414.462	5735.94
414.572	5562.94
414.683	5518.94
414.793	5495.94
414.904	5808.94
415.014	5439.94
415.125	5366.94
415.235	5507.94
415.346	5644.94
415.456	5590.94
415.567	5344.94
415.677	5384.94
415.788	5427.94
415.898	5414.94
416.009	5313.94
416.119	5416.94
416.23	5418.94
416.34	5351.94
416.45	5403.94
416.561	6069.94
416.671	5448.94
416.782	5489.94
416.892	5520.94
417.002	5455.94
417.113	5669.94
417.223	5399.94
417.333	5583.94
417.444	5639.94
417.554	5667.94
417.664	5734.94
417.775	5602.94
417.885	5791.94
417.995	5670.94
418.106	6051.94
418.216	5804.94
418.326	5926.94
418.436	6055.94
418.547	6063.94
418.657	6070.94
418.767	6079.94
418.877	6233.94
418.987	6183.94
419.098	6042.94
419.208	6277.94
419.318	6206.94
419.428	6237.94
419.538	6130.94
419.648	6234.94
419.759	6156.94
419.869	6178.94
419.979	6148.94
420.089	6100.94
420.199	6153.94
420.309	6296.94
420.419	6131.94
420.529	6202.94
420.639	6490.94
420.749	6397.94
420.859	6470.94
420.969	6444.94
421.079	6720.94
421.189	6345.94
421.299	6314.94
421.409	6501.94
421.519	6514.94
421.629	6570.94
421.739	6459.94
421.849	6565.94
421.959	6508.94
422.069	6663.94
422.179	6582.94
422.289	6731.94
422.399	6838.94
422.509	6863.94
422.619	9900.94
422.729	7104.94
422.838	6968.94
422.948	6968.94
423.058	7021.94
423.168	7110.94
423.278	7187.94
423.388	7187.94
423.498	7448.94
423.607	7286.94
423.717	7720.94
423.827	7729.94
423.937	7493.94
424.046	7597.94
424.156	7675.94
424.266	7511.94
424.376	7924.94
424.485	7843.94
424.595	7747.94
424.705	7709.94
424.815	7806.94
424.924	8235.94
425.034	7840.94
425.144	7760.94
425.253	7865.94
425.363	8077.94
425.473	8043.94
425.582	7914.94
425.692	8012.94
425.801	7939.94
425.911	8178.94
426.021	8241.94
426.13	8273.94
426.24	8436.94
426.349	8429.94
426.459	8233.94
426.568	8213.94
426.678	8420.94
426.787	8445.94
426.897	8357.94
427.006	8463.94
427.116	8531.94
427.225	8501.94
427.335	8740.94
427.444	8641.94
427.554	8522.94
427.663	8683.94
427.773	8837.94
427.882	8888.94
427.992	8736.94
428.101	8904.94
428.21	8947.94
428.32	9055.94
428.429	8940.94
428.539	9303.94
428.648	9078.94
428.757	9079.94
428.867	9217.94
428.976	9414.94
429.085	9387.94
429.195	9392.94
429.304	9326.94
429.413	9290.94
429.523	9402.94
429.632	9308.94
429.741	9396.94
429.85	9355.94
429.96	9623.94
430.069	9462.94
430.178	9557.94
430.287	9819.94
430.397	9712.94
430.506	9599.94
430.615	9737.94
430.724	9778.94
430.833	9692.94
430.943	9875.94
431.052	9827.94
431.161	9907.94
431.27	10123.94
431.379	10128.94
431.488	10675.94
431.597	10356.94
431.706	10512.94
431.816	10399.94
431.925	10453.94
432.034	10416.94
432.143	10308.94
432.252	10279.94
432.361	10417.94
432.47	10378.94
432.579	10312.94
432.688	10293.94
432.797	10414.94
432.906	10124.94
433.015	10305.94
433.124	10679.94
433.233	10551.94
433.342	10458.94
433.451	10541.94
433.56	10322.94
433.669	10493.94
433.778	10578.94
433.886	10646.94
433.995	10451.94
434.104	10899.94
434.213	10881.94
434.322	10958.94
434.431	11147.94
434.54	11425.94
434.649	11597.94
434.757	11518.94
434.866	11483.94
434.975	11348.94
435.084	11141.94
435.193	10844.94
435.301	10812.94
435.41	10596.94
435.519	10792.94
435.628	10009.94
435.737	10091.94
435.845	9973.94
435.954	9906.94
436.063	9844.94
436.171	9974.94
436.28	9837.94
436.389	10084.94
436.498	9719.94
436.606	9893.94
436.715	9897.94
436.823	9595.94
436.932	9436.94
437.041	9306.94
437.149	9389.94
437.258	9220.94
437.367	9151.94
437.475	9193.94
437.584	9388.94
437.692	9118.94
437.801	10419.94
437.91	9129.94
438.018	9026.94
438.127	9001.94
438.235	9066.94
438.344	9004.94
438.452	8911.94
438.561	8773.94
438.669	8934.94
438.778	8776.94
438.886	8784.94
438.995	8737.94
439.103	8961.94
439.212	8734.94
439.32	8898.94
439.428	8763.94
439.537	8963.94
439.645	8920.94
439.754	8971.94
439.862	8750.94
439.97	8883.94
440.079	9001.94
440.187	8909.94
440.295	9120.94
440.404	9143.94
440.512	9156.94
440.62	9024.94
440.729	9227.94
440.837	9321.94
440.945	9998.94
441.054	9605.94
441.162	9603.94
441.27	9767.94
441.378	10019.94
441.487	9781.94
441.595	10311.94
441.703	9993.94
441.811	9778.94
441.92	9811.94
442.028	9507.94
442.136	9496.94
442.244	9520.94
442.352	9529.94
442.461	9325.94
442.569	9458.94
442.677	9520.94
442.785	9357.94
442.893	9300.94
443.001	9398.94
443.109	9351.94
443.217	9468.94
443.325	9418.94
443.434	10003.94
443.542	9874.94
443.65	9697.94
443.758	9794.94
443.866	9810.94
443.974	10221.94
444.082	10048.94
444.19	10304.94
444.298	10369.94
444.406	10743.94
444.514	10962.94
444.622	11024.94
444.73	11079.94
444.838	10760.94
444.946	10807.94
445.054	10370.94
445.161	10272.94
445.269	9942.94
445.377	10124.94
445.485	9846.94
445.593	9676.94
445.701	9822.94
445.809	9734.94
445.917	9746.94
446.025	9514.94
446.132	9719.94
446.24	9629.94
446.348	9612.94
446.456	9463.94
446.564	9433.94
446.671	9520.94
446.779	9458.94
446.887	9436.94
446.995	9385.94
447.102	9606.94
447.21	9355.94
447.318	9296.94
447.426	9218.94
447.533	9607.94
447.641	10470.94
447.749	9348.94
447.856	9336.94
447.964	9230.94
448.072	9448.94
448.179	9368.94
448.287	9304.94
448.395	9432.94
448.502	9143.94
448.61	9380.94
448.718	9256.94
448.825	9359.94
448.933	9312.94
449.04	9413.94
449.148	9560.94
449.256	9597.94
449.363	9503.94
449.471	9738.94
449.578	9792.94
449.686	9748.94
449.793	9971.94
449.901	9830.94
450.008	10025.94
450.116	10037.94
450.223	10021.94
450.331	10266.94
450.438	10278.94
450.546	10411.94
450.653	10445.94
450.76	10555.94
450.868	10546.94
450.975	10784.94
451.083	10641.94
451.19	10661.94
451.297	10524.94
451.405	10767.94
451.512	10857.94
451.619	10967.94
451.727	10917.94
451.834	10815.94
451.941	11032.94
452.049	10986.94
452.156	11084.94
452.263	11170.94
452.371	11039.94
452.478	11074.94
452.585	11216.94
452.692	11072.94
452.8	11305.94
452.907	11382.94
453.014	11273.94
453.121	11344.94
453.229	11409.94
453.336	11455.94
453.443	11475.94
453.55	11483.94
453.657	11352.94
453.765	11905.94
453.872	11492.94
453.979	11880.94
454.086	11861.94
454.193	11892.94
454.3	11585.94
454.407	11967.94
454.514	12118.94
454.621	11760.94
454.729	11798.94
454.836	11882.94
454.943	11972.94
455.05	12080.94
455.157	12265.94
455.264	12111.94
455.371	12225.94
455.478	12313.94
455.585	13476.94
455.692	12354.94
455.799	12531.94
455.906	12420.94
456.013	12265.94
456.12	12451.94
456.227	12511.94
456.334	12587.94
456.44	12754.94
456.547	12904.94
456.654	12563.94
456.761	12809.94
456.868	12884.94
456.975	13004.94
457.082	12780.94
457.189	12752.94
457.296	12969.94
457.402	13021.94
457.509	13081.94
457.616	13351.94
457.723	13620.94
457.83	13381.94
457.936	13435.94
458.043	13757.94
458.15	13532.94
458.257	13908.94
458.363	14168.94
458.47	14270.94
458.577	14504.94
458.684	14541.94
458.79	14541.94
458.897	14541.94
459.004	14541.94
459.11	14541.94
459.217	14541.94
459.324	14541.94
459.43	14541.94
459.537	14541.94
459.644	14541.94
459.75	14541.94
459.857	14541.94
459.964	14541.94
460.07	14541.94
460.177	14541.94
460.283	14541.94
460.39	14541.94
460.496	14541.94
460.603	14541.94
460.71	14541.94
460.816	14541.94
460.923	14541.94
461.029	14541.94
461.136	14541.94
461.242	14541.94
461.349	14541.94
461.455	14541.94
461.562	14541.94
461.668	14541.94
461.774	14541.94
461.881	14541.94
461.987	14541.94
462.094	14541.94
462.2	14541.94
462.307	14541.94
462.413	14541.94
462.519	14541.94
462.626	14541.94
462.732	14541.94
462.838	14541.94
462.945	14541.94
463.051	14541.94
463.157	14541.94
463.264	14541.94
463.37	14541.94
463.476	14541.94
463.583	14541.94
463.689	14541.94
463.795	14541.94
463.901	14541.94
464.008	14541.94
464.114	14541.94
464.22	14541.94
464.326	14541.94
464.433	14541.94
464.539	14541.94
464.645	14541.94
464.751	14541.94
464.857	14541.94
464.963	14541.94
465.07	14541.94
465.176	14541.94
465.282	14541.94
465.388	14541.94
465.494	14463.94
465.6	14159.94
465.706	13908.94
465.812	13833.94
465.918	13800.94
466.024	13546.94
466.131	13219.94
466.237	13016.94
466.343	12783.94
466.449	12674.94
466.555	12552.94
466.661	12408.94
466.767	12233.94
466.873	12173.94
466.979	12379.94
467.085	12171.94
467.191	12177.94
467.296	12070.94
467.402	11994.94
467.508	11960.94
467.614	11995.94
467.72	11620.94
467.826	11717.94
467.932	11543.94
468.038	11199.94
468.144	11285.94
468.25	11183.94
468.355	11184.94
468.461	11008.94
468.567	11118.94
468.673	11090.94
468.779	10935.94
468.885	10943.94
468.99	10860.94
469.096	10898.94
469.202	10968.94
469.308	11158.94
469.413	11010.94
469.519	11131.94
469.625	11113.94
469.731	11111.94
469.836	11187.94
469.942	11458.94
470.048	11361.94
470.153	11343.94
470.259	11323.94
470.365	11391.94
470.47	11313.94
470.576	11127.94
470.682	11109.94
470.787	10981.94
470.893	10862.94
470.999	10790.94
471.104	10552.94
471.21	10275.94
471.315	10392.94
471.421	10151.94
471.527	10491.94
471.632	10216.94
471.738	10158.94
471.843	9917.94
471.949	9889.94
472.054	9853.94
472.16	9768.94
472.265	9712.94
472.371	9682.94
472.476	9639.94
472.582	9675.94
472.687	9485.94
472.793	9352.94
472.898	9328.94
473.003	9489.94
473.109	9361.94
473.214	9131.94
473.32	9293.94
473.425	9390.94
473.53	9300.94
473.636	9126.94
473.741	9235.94
473.847	9090.94
473.952	9066.94
474.057	9234.94
474.163	9126.94
474.268	9105.94
474.373	9261.94
474.478	9236.94
474.584	9063.94
474.689	9093.94
474.794	9153.94
474.9	9416.94
475.005	9061.94
475.11	9305.94
475.215	9091.94
475.321	9192.94
475.426	9434.94
475.531	9201.94
475.636	9158.94
475.741	9084.94
475.846	9493.94
475.952	9526.94
476.057	9350.94
476.162	9397.94
476.267	9573.94
476.372	9526.94
476.477	9475.94
476.582	9496.94
476.687	9543.94
476.793	9548.94
476.898	9430.94
477.003	9642.94
477.108	9711.94
477.213	9834.94
477.318	9773.94
477.423	10019.94
477.528	10102.94
477.633	10167.94
477.738	10379.94
477.843	10350.94
477.948	10401.94
478.053	10443.94
478.158	10424.94
478.263	10563.94
478.368	10540.94
478.473	10642.94
478.578	10821.94
478.682	10855.94
478.787	10854.94
478.892	10992.94
478.997	11155.94
479.102	10928.94
479.207	10986.94
479.312	11122.94
479.417	10968.94
479.521	11123.94
479.626	11200.94
479.731	11206.94
479.836	11286.94
479.941	11575.94
480.045	11719.94
480.15	11921.94
480.255	11832.94
480.36	11964.94
480.465	11810.94
480.569	12079.94
480.674	11667.94
480.779	11532.94
480.883	11476.94
480.988	11391.94
481.093	11535.94
481.197	11453.94
481.302	11550.94
481.407	11415.94
481.511	12531.94
481.616	11584.94
481.721	11248.94
481.825	11554.94
481.93	11221.94
482.035	11387.94
482.139	11425.94
482.244	11374.94
482.348	11384.94
482.453	11547.94
482.557	11697.94
482.662	11670.94
482.767	11696.94
482.871	11769.94
482.976	11792.94
483.08	11775.94
483.185	12096.94
483.289	11998.94
483.394	12163.94
483.498	12251.94
483.603	12089.94
483.707	12320.94
483.811	12315.94
483.916	12376.94
484.02	12503.94
484.125	12767.94
484.229	12843.94
484.333	12969.94
484.438	12849.94
484.542	12784.94
484.647	12989.94
484.751	13276.94
484.855	13297.94
484.96	13374.94
485.064	13352.94
485.168	13528.94
485.273	13412.94
485.377	13700.94
485.481	13829.94
485.585	13776.94
485.69	13811.94
485.794	14014.94
485.898	13954.94
486.002	14000.94
486.107	13928.94
486.211	14014.94
486.315	14082.94
486.419	14023.94
486.524	14120.94
486.628	14225.94
486.732	14001.94
486.836	13975.94
486.94	14287.94
487.044	14099.94
487.148	14077.94
487.253	14063.94
487.357	14261.94
487.461	14236.94
487.565	14137.94
487.669	14239.94
487.773	14106.94
487.877	14213.94
487.981	14196.94
488.085	14126.94
488.189	13997.94
488.293	14300.94
488.397	14496.94
488.501	14153.94
488.605	14118.94
488.709	14253.94
488.813	14103.94
488.917	14082.94
489.021	14145.94
489.125	14358.94
489.229	14148.94
489.333	14398.94
489.437	14268.94
489.541	14332.94
489.645	14278.94
489.749	14474.94
489.853	14376.94
489.956	14298.94
490.06	14494.94
490.164	14333.94
490.268	14201.94
490.372	14431.94
490.476	14255.94
490.579	14340.94
490.683	14541.94
490.787	14335.94
490.891	14236.94
490.995	14322.94
491.098	14311.94
491.202	14269.94
491.306	14352.94
491.41	14353.94
491.513	14131.94
491.617	14253.94
491.721	14460.94
491.824	14541.94
491.928	14228.94
492.032	14541.94
492.136	14310.94
492.239	14284.94
492.343	14250.94
492.446	14541.94
492.55	14360.94
492.654	14175.94
492.757	14426.94
492.861	14367.94
492.965	14259.94
493.068	14421.94
493.172	14476.94
493.275	14398.94
493.379	14253.94
493.482	14541.94
493.586	14458.94
493.689	14444.94
493.793	14296.94
493.896	14541.94
494	14541.94
494.103	14541.94
494.207	14541.94
494.31	14541.94
494.414	14488.94
494.517	14307.94
494.621	14328.94
494.724	14212.94
494.828	14215.94
494.931	14171.94
495.034	14159.94
495.138	14269.94
495.241	14014.94
495.345	14541.94
495.448	14100.94
495.551	14090.94
495.655	14058.94
495.758	14166.94
495.861	13926.94
495.965	14067.94
496.068	14122.94
496.171	14284.94
496.274	14147.94
496.378	14037.94
496.481	14265.94
496.584	14100.94
496.687	14314.94
496.791	14483.94
496.894	14503.94
496.997	14437.94
497.1	14508.94
497.204	14541.94
497.307	14541.94
497.41	14541.94
497.513	14541.94
497.616	14541.94
497.719	14541.94
497.823	14541.94
497.926	14541.94
498.029	14541.94
498.132	14541.94
498.235	14541.94
498.338	14541.94
498.441	14541.94
498.544	14541.94
498.647	14541.94
498.75	14541.94
498.853	14541.94
498.956	14541.94
499.059	14541.94
499.163	14541.94
499.266	14541.94
499.369	14541.94
499.471	14541.94
499.574	14541.94
499.677	14541.94
499.78	14541.94
499.883	14541.94
499.986	14541.94
500.089	14541.94
500.192	14541.94
500.295	14541.94
500.398	14541.94
500.501	14541.94
500.604	14541.94
500.707	14541.94
500.809	14541.94
500.912	14541.94
501.015	14541.94
501.118	14541.94
501.221	14541.94
501.324	14541.94
501.426	14541.94
501.529	14541.94
501.632	14541.94
501.735	14541.94
501.837	14541.94
501.94	14541.94
502.043	14541.94
502.146	14541.94
502.248	14541.94
502.351	14541.94
502.454	14541.94
502.557	14541.94
502.659	14541.94
502.762	14541.94
502.865	14043.94
502.967	13755.94
503.07	13729.94
503.173	13466.94
503.275	13274.94
503.378	13115.94
503.48	13014.94
503.583	12870.94
503.686	12750.94
503.788	13175.94
503.891	12892.94
503.993	13107.94
504.096	13015.94
504.198	12763.94
504.301	12776.94
504.403	12895.94
504.506	12786.94
504.608	12566.94
504.711	12341.94
504.813	12113.94
504.916	11749.94
505.018	11527.94
505.121	11196.94
505.223	11157.94
505.326	11000.94
505.428	10963.94
505.531	10835.94
505.633	10590.94
505.735	10495.94
505.838	10363.94
505.94	10389.94
506.042	10251.94
506.145	10210.94
506.247	10135.94
506.35	10019.94
506.452	10127.94
506.554	10091.94
506.656	10062.94
506.759	9891.94
506.861	9892.94
506.963	9628.94
507.066	9828.94
507.168	9752.94
507.27	9692.94
507.372	9562.94
507.475	9598.94
507.577	9482.94
507.679	9520.94
507.781	9398.94
507.883	9400.94
507.986	9231.94
508.088	9308.94
508.19	9235.94
508.292	9421.94
508.394	9358.94
508.496	9114.94
508.598	9226.94
508.701	9216.94
508.803	9116.94
508.905	9108.94
509.007	9150.94
509.109	9104.94
509.211	9096.94
509.313	9052.94
509.415	8897.94
509.517	8914.94
509.619	8867.94
509.721	9058.94
509.823	8815.94
509.925	9039.94
510.027	8879.94
510.129	8940.94
510.231	8991.94
510.333	8835.94
510.435	8692.94
510.537	8887.94
510.639	9054.94
510.741	8924.94
510.843	8928.94
510.945	8810.94
511.047	8976.94
511.148	8804.94
511.25	8806.94
511.352	8925.94
511.454	8828.94
511.556	8921.94
511.658	8878.94
511.76	8980.94
511.861	9065.94
511.963	8805.94
512.065	8931.94
512.167	8855.94
512.268	9132.94
512.37	8984.94
512.472	8995.94
512.574	8922.94
512.676	9049.94
512.777	8901.94
512.879	8985.94
512.981	9056.94
513.082	9090.94
513.184	8892.94
513.286	9420.94
513.387	9184.94
513.489	9263.94
513.591	9161.94
513.692	9268.94
513.794	9155.94
513.896	9026.94
513.997	9183.94
514.099	9161.94
514.2	9268.94
514.302	9257.94
514.404	9322.94
514.505	9357.94
514.607	9596.94
514.708	9444.94
514.81	9485.94
514.911	9526.94
515.013	9697.94
515.114	9763.94
515.216	9636.94
515.317	9773.94
515.419	9897.94
515.52	10008.94
515.622	9996.94
515.723	10112.94
515.825	10304.94
515.926	10223.94
516.027	10295.94
516.129	10375.94
516.23	10777.94
516.332	10720.94
516.433	10869.94
516.534	11154.94
516.636	11247.94
516.737	11341.94
516.838	12685.94
516.94	11936.94
517.041	11988.94
517.142	12338.94
517.244	12479.94
517.345	12653.94
517.446	12784.94
517.547	12833.94
517.649	12998.94
517.75	12826.94
517.851	12782.94
517.952	12953.94
518.054	12771.94
518.155	12674.94
518.256	12330.94
518.357	12151.94
518.458	11921.94
518.56	11771.94
518.661	11743.94
518.762	11520.94
518.863	11551.94
518.964	11287.94
519.065	11164.94
519.166	10998.94
519.268	10966.94
519.369	11143.94
519.47	10810.94
519.571	10824.94
519.672	10709.94
519.773	10611.94
519.874	10703.94
519.975	10697.94
520.076	10514.94
520.177	10574.94
520.278	10535.94
520.379	10443.94
520.48	10239.94
520.581	10357.94
520.682	10260.94
520.783	10281.94
520.884	10406.94
520.985	10338.94
521.086	10288.94
521.187	10216.94
521.288	10154.94
521.389	10163.94
521.489	10088.94
521.59	10154.94
521.691	10068.94
521.792	10260.94
521.893	10282.94
521.994	10141.94
522.095	10104.94
522.195	10194.94
522.296	10232.94
522.397	10139.94
522.498	10170.94
522.599	10020.94
522.699	10001.94
522.8	10086.94
522.901	10338.94
523.002	10116.94
523.102	10273.94
523.203	10221.94
523.304	10320.94
523.405	10240.94
523.505	10229.94
523.606	10236.94
523.707	10195.94
523.807	10192.94
523.908	10319.94
524.009	10243.94
524.109	10140.94
524.21	10146.94
524.31	10152.94
524.411	10324.94
524.512	10334.94
524.612	10217.94
524.713	10398.94
524.813	10272.94
524.914	10383.94
525.014	14541.94
525.115	10572.94
525.216	10194.94
525.316	10095.94
525.417	10222.94
525.517	10137.94
525.618	10188.94
525.718	10099.94
525.819	10287.94
525.919	10169.94
526.019	10100.94
526.12	10232.94
526.22	10138.94
526.321	10046.94
526.421	10184.94
526.522	10128.94
526.622	10106.94
526.722	10073.94
526.823	10117.94
526.923	10121.94
527.023	10339.94
527.124	10113.94
527.224	10084.94
527.324	10018.94
527.425	10100.94
527.525	9974.94
527.625	10059.94
527.726	10127.94
527.826	10127.94
527.926	10050.94
528.026	10163.94
528.127	10136.94
528.227	10089.94
528.327	10096.94
528.427	10098.94
528.528	9971.94
528.628	10161.94
528.728	10360.94
528.828	10153.94
528.928	10122.94
529.029	10111.94
529.129	9920.94
529.229	10029.94
529.329	10059.94
529.429	10026.94
529.529	10132.94
529.629	10065.94
529.729	9967.94
529.829	10070.94
529.93	9939.94
530.03	9908.94
530.13	9764.94
530.23	9827.94
530.33	9929.94
530.43	9844.94
530.53	9808.94
530.63	9784.94
530.73	9653.94
530.83	9697.94
530.93	9647.94
531.03	9681.94
531.13	9755.94
531.23	9655.94
531.33	9850.94
531.429	9754.94
531.529	9688.94
531.629	9743.94
531.729	9519.94
531.829	9555.94
531.929	9594.94
532.029	9664.94
532.129	9569.94
532.229	9687.94
532.328	9622.94
532.428	9428.94
532.528	9252.94
532.628	9394.94
532.728	9487.94
532.827	9316.94
532.927	9584.94
533.027	9270.94
533.127	9377.94
533.227	9467.94
533.326	9419.94
533.426	9169.94
533.526	9349.94
533.625	9437.94
