Data from 7g_HRC06701__28__150.txt Node

Date: Thu Apr 18 01:50:17 CDT 2024
User: Estudiantes 2
Spectrometer: HR+C0670
Trigger mode: 4
Integration Time (sec): 1.000000E0
Scans to average: 1
Electric dark correction enabled: true
Nonlinearity correction enabled: false
Boxcar width: 0
XAxis mode: Wavelengths
Number of Pixels in Spectrum: 2048
>>>>>Begin Spectral Data<<<<<
407.81	-115.12
407.921	-115.12
408.032	-115.12
408.143	-109.12
408.254	-133.12
408.365	6.88
408.476	237.88
408.587	-34.12
408.699	-23.12
408.81	40.88
408.921	-68.12
409.032	-39.12
409.143	67.88
409.254	-5.12
409.365	75.88
409.476	14.88
409.587	20.88
409.698	61.88
409.809	82.88
409.92	7.88
410.031	-43.12
410.142	40.88
410.253	5.88
410.364	-20.12
410.475	97.88
410.585	693.88
410.696	690.88
410.807	694.88
410.918	721.88
411.029	780.88
411.14	735.88
411.251	698.88
411.362	795.88
411.472	732.88
411.583	761.88
411.694	830.88
411.805	731.88
411.916	740.88
412.026	855.88
412.137	751.88
412.248	753.88
412.359	745.88
412.47	705.88
412.58	660.88
412.691	793.88
412.802	784.88
412.912	747.88
413.023	753.88
413.134	785.88
413.245	792.88
413.355	731.88
413.466	759.88
413.577	755.88
413.687	760.88
413.798	688.88
413.909	781.88
414.019	729.88
414.13	769.88
414.24	702.88
414.351	808.88
414.462	842.88
414.572	852.88
414.683	802.88
414.793	717.88
414.904	1100.88
415.014	736.88
415.125	688.88
415.235	802.88
415.346	833.88
415.456	869.88
415.567	766.88
415.677	789.88
415.788	785.88
415.898	696.88
416.009	763.88
416.119	726.88
416.23	692.88
416.34	756.88
416.45	710.88
416.561	1350.88
416.671	883.88
416.782	659.88
416.892	680.88
417.002	777.88
417.113	782.88
417.223	766.88
417.333	736.88
417.444	810.88
417.554	783.88
417.664	803.88
417.775	765.88
417.885	735.88
417.995	794.88
418.106	904.88
418.216	773.88
418.326	788.88
418.436	849.88
418.547	762.88
418.657	742.88
418.767	908.88
418.877	831.88
418.987	790.88
419.098	784.88
419.208	848.88
419.318	890.88
419.428	887.88
419.538	865.88
419.648	850.88
419.759	878.88
419.869	878.88
419.979	824.88
420.089	799.88
420.199	778.88
420.309	929.88
420.419	858.88
420.529	820.88
420.639	1303.88
420.749	869.88
420.859	951.88
420.969	879.88
421.079	1023.88
421.189	915.88
421.299	909.88
421.409	834.88
421.519	942.88
421.629	917.88
421.739	906.88
421.849	805.88
421.959	797.88
422.069	954.88
422.179	809.88
422.289	813.88
422.399	966.88
422.509	951.88
422.619	4019.88
422.729	1257.88
422.838	857.88
422.948	906.88
423.058	876.88
423.168	1002.88
423.278	947.88
423.388	956.88
423.498	1036.88
423.607	945.88
423.717	1179.88
423.827	1252.88
423.937	997.88
424.046	1047.88
424.156	1076.88
424.266	993.88
424.376	1172.88
424.485	1145.88
424.595	1059.88
424.705	998.88
424.815	1059.88
424.924	1484.88
425.034	1109.88
425.144	1036.88
425.253	1109.88
425.363	1065.88
425.473	1126.88
425.582	1051.88
425.692	1085.88
425.801	1049.88
425.911	1232.88
426.021	1149.88
426.13	1191.88
426.24	1352.88
426.349	1247.88
426.459	1167.88
426.568	1152.88
426.678	1297.88
426.787	1140.88
426.897	1100.88
427.006	1216.88
427.116	1189.88
427.225	1186.88
427.335	1268.88
427.444	1252.88
427.554	1239.88
427.663	1199.88
427.773	1232.88
427.882	1291.88
427.992	1207.88
428.101	1254.88
428.21	1227.88
428.32	1241.88
428.429	1188.88
428.539	1458.88
428.648	1228.88
428.757	1289.88
428.867	1336.88
428.976	1434.88
429.085	1320.88
429.195	1364.88
429.304	1285.88
429.413	1326.88
429.523	1377.88
429.632	1323.88
429.741	1344.88
429.85	1321.88
429.96	1345.88
430.069	1293.88
430.178	1322.88
430.287	1585.88
430.397	1338.88
430.506	1321.88
430.615	1354.88
430.724	1372.88
430.833	1392.88
430.943	1418.88
431.052	1391.88
431.161	1356.88
431.27	1422.88
431.379	1369.88
431.488	1526.88
431.597	1480.88
431.706	1454.88
431.816	1396.88
431.925	1429.88
432.034	1411.88
432.143	1468.88
432.252	1401.88
432.361	1531.88
432.47	1452.88
432.579	1426.88
432.688	1464.88
432.797	1462.88
432.906	1356.88
433.015	1552.88
433.124	1795.88
433.233	1454.88
433.342	1461.88
433.451	1500.88
433.56	1484.88
433.669	1406.88
433.778	1506.88
433.886	1482.88
433.995	1493.88
434.104	1631.88
434.213	1515.88
434.322	1445.88
434.431	1641.88
434.54	1536.88
434.649	1632.88
434.757	1566.88
434.866	1532.88
434.975	1572.88
435.084	1573.88
435.193	1562.88
435.301	1718.88
435.41	1749.88
435.519	1928.88
435.628	1451.88
435.737	1407.88
435.845	1453.88
435.954	1367.88
436.063	1398.88
436.171	1345.88
436.28	1419.88
436.389	1445.88
436.498	1366.88
436.606	1407.88
436.715	1491.88
436.823	1372.88
436.932	1408.88
437.041	1362.88
437.149	1370.88
437.258	1350.88
437.367	1268.88
437.475	1287.88
437.584	1545.88
437.692	1324.88
437.801	2659.88
437.91	1420.88
438.018	1288.88
438.127	1226.88
438.235	1329.88
438.344	1344.88
438.452	1310.88
438.561	1250.88
438.669	1318.88
438.778	1216.88
438.886	1267.88
438.995	1227.88
439.103	1286.88
439.212	1228.88
439.32	1243.88
439.428	1276.88
439.537	1247.88
439.645	1336.88
439.754	1291.88
439.862	1251.88
439.97	1245.88
440.079	1275.88
440.187	1255.88
440.295	1366.88
440.404	1364.88
440.512	1334.88
440.62	1335.88
440.729	1346.88
440.837	1425.88
440.945	1906.88
441.054	1409.88
441.162	1298.88
441.27	1389.88
441.378	1332.88
441.487	1372.88
441.595	1629.88
441.703	1424.88
441.811	1408.88
441.92	1328.88
442.028	1316.88
442.136	1312.88
442.244	1384.88
442.352	1344.88
442.461	1212.88
442.569	1301.88
442.677	1269.88
442.785	1343.88
442.893	1327.88
443.001	1230.88
443.109	1224.88
443.217	1285.88
443.325	1249.88
443.434	1734.88
443.542	1557.88
443.65	1369.88
443.758	1479.88
443.866	1351.88
443.974	1601.88
444.082	1399.88
444.19	1414.88
444.298	1485.88
444.406	1433.88
444.514	1491.88
444.622	1559.88
444.73	1481.88
444.838	1435.88
444.946	1501.88
445.054	1409.88
445.161	1375.88
445.269	1347.88
445.377	1444.88
445.485	1440.88
445.593	1403.88
445.701	1618.88
445.809	1474.88
445.917	1431.88
446.025	1346.88
446.132	1510.88
446.24	1428.88
446.348	1375.88
446.456	1322.88
446.564	1335.88
446.671	1421.88
446.779	1377.88
446.887	1353.88
446.995	1364.88
447.102	1418.88
447.21	1349.88
447.318	1324.88
447.426	1365.88
447.533	1554.88
447.641	2485.88
447.749	1508.88
447.856	1376.88
447.964	1404.88
448.072	1458.88
448.179	1419.88
448.287	1455.88
448.395	1454.88
448.502	1402.88
448.61	1360.88
448.718	1344.88
448.825	1500.88
448.933	1386.88
449.04	1350.88
449.148	1432.88
449.256	1427.88
449.363	1444.88
449.471	1428.88
449.578	1577.88
449.686	1412.88
449.793	1581.88
449.901	1517.88
450.008	1486.88
450.116	1483.88
450.223	1452.88
450.331	1525.88
450.438	1442.88
450.546	1538.88
450.653	1582.88
450.76	1626.88
450.868	1528.88
450.975	1730.88
451.083	1562.88
451.19	1592.88
451.297	1595.88
451.405	1625.88
451.512	1535.88
451.619	1743.88
451.727	1681.88
451.834	1593.88
451.941	1618.88
452.049	1626.88
452.156	1554.88
452.263	1705.88
452.371	1683.88
452.478	1653.88
452.585	1810.88
452.692	1745.88
452.8	1709.88
452.907	1746.88
453.014	1786.88
453.121	1729.88
453.229	1724.88
453.336	1739.88
453.443	1805.88
453.55	1681.88
453.657	1764.88
453.765	1866.88
453.872	1749.88
453.979	1803.88
454.086	1758.88
454.193	1767.88
454.3	1706.88
454.407	1937.88
454.514	1926.88
454.621	1792.88
454.729	1878.88
454.836	1822.88
454.943	1810.88
455.05	1890.88
455.157	1925.88
455.264	1727.88
455.371	1839.88
455.478	1900.88
455.585	3008.88
455.692	2010.88
455.799	2071.88
455.906	1917.88
456.013	1894.88
456.12	1951.88
456.227	1898.88
456.334	1909.88
456.44	2058.88
456.547	2029.88
456.654	1931.88
456.761	1985.88
456.868	2057.88
456.975	2074.88
457.082	1972.88
457.189	1963.88
457.296	1990.88
457.402	1973.88
457.509	1951.88
457.616	2068.88
457.723	2228.88
457.83	2076.88
457.936	2021.88
458.043	2374.88
458.15	2059.88
458.257	2119.88
458.363	2057.88
458.47	2083.88
458.577	2246.88
458.684	2068.88
458.79	2205.88
458.897	2240.88
459.004	2278.88
459.11	2197.88
459.217	2270.88
459.324	2338.88
459.43	2385.88
459.537	2474.88
459.644	2425.88
459.75	2272.88
459.857	2678.88
459.964	2392.88
460.07	2379.88
460.177	2429.88
460.283	2528.88
460.39	2589.88
460.496	2401.88
460.603	2447.88
460.71	2427.88
460.816	2401.88
460.923	2393.88
461.029	2451.88
461.136	2426.88
461.242	2398.88
461.349	2487.88
461.455	2398.88
461.562	2792.88
461.668	2669.88
461.774	2416.88
461.881	2553.88
461.987	2552.88
462.094	2507.88
462.2	2567.88
462.307	2661.88
462.413	2542.88
462.519	2532.88
462.626	2731.88
462.732	2705.88
462.838	2685.88
462.945	2793.88
463.051	2801.88
463.157	2745.88
463.264	2744.88
463.37	2730.88
463.476	2652.88
463.583	2573.88
463.689	2605.88
463.795	2567.88
463.901	2628.88
464.008	2749.88
464.114	2648.88
464.22	2529.88
464.326	2535.88
464.433	2578.88
464.539	2506.88
464.645	2382.88
464.751	2651.88
464.857	2388.88
464.963	2258.88
465.07	2290.88
465.176	2281.88
465.282	2193.88
465.388	2339.88
465.494	2129.88
465.6	2113.88
465.706	2035.88
465.812	2008.88
465.918	2091.88
466.024	2017.88
466.131	2108.88
466.237	2007.88
466.343	1861.88
466.449	1874.88
466.555	1915.88
466.661	1806.88
466.767	1838.88
466.873	1941.88
466.979	1936.88
467.085	1840.88
467.191	1888.88
467.296	1800.88
467.402	1822.88
467.508	1900.88
467.614	1974.88
467.72	1797.88
467.826	1789.88
467.932	1797.88
468.038	1691.88
468.144	1718.88
468.25	1723.88
468.355	1653.88
468.461	1689.88
468.567	1688.88
468.673	1672.88
468.779	1692.88
468.885	1716.88
468.99	1596.88
469.096	1655.88
469.202	1816.88
469.308	1743.88
469.413	1700.88
469.519	1628.88
469.625	1731.88
469.731	1702.88
469.836	1637.88
469.942	1864.88
470.048	1626.88
470.153	1692.88
470.259	1783.88
470.365	1713.88
470.47	1749.88
470.576	1670.88
470.682	1678.88
470.787	1696.88
470.893	1608.88
470.999	1738.88
471.104	1707.88
471.21	1595.88
471.315	1569.88
471.421	1538.88
471.527	1767.88
471.632	1616.88
471.738	1561.88
471.843	1477.88
471.949	1608.88
472.054	1578.88
472.16	1512.88
472.265	1481.88
472.371	1494.88
472.476	1514.88
472.582	1578.88
472.687	1492.88
472.793	1427.88
472.898	1441.88
473.003	1474.88
473.109	1480.88
473.214	1408.88
473.32	1502.88
473.425	1554.88
473.53	1430.88
473.636	1415.88
473.741	1469.88
473.847	1356.88
473.952	1469.88
474.057	1547.88
474.163	1501.88
474.268	1419.88
474.373	1529.88
474.478	1393.88
474.584	1380.88
474.689	1568.88
474.794	1483.88
474.9	1685.88
475.005	1402.88
475.11	1655.88
475.215	1433.88
475.321	1458.88
475.426	1662.88
475.531	1549.88
475.636	1380.88
475.741	1478.88
475.846	1509.88
475.952	1661.88
476.057	1575.88
476.162	1546.88
476.267	1600.88
476.372	1760.88
476.477	1543.88
476.582	1574.88
476.687	1482.88
476.793	1519.88
476.898	1472.88
477.003	1558.88
477.108	1519.88
477.213	1480.88
477.318	1491.88
477.423	1611.88
477.528	1635.88
477.633	1629.88
477.738	1621.88
477.843	1534.88
477.948	1623.88
478.053	1583.88
478.158	1622.88
478.263	1622.88
478.368	1595.88
478.473	1722.88
478.578	1633.88
478.682	1530.88
478.787	1750.88
478.892	1661.88
478.997	1692.88
479.102	1648.88
479.207	1672.88
479.312	1728.88
479.417	1682.88
479.521	1713.88
479.626	1750.88
479.731	1709.88
479.836	1767.88
479.941	1818.88
480.045	1816.88
480.15	1858.88
480.255	1765.88
480.36	1704.88
480.465	1835.88
480.569	1927.88
480.674	1696.88
480.779	1709.88
480.883	1775.88
480.988	1817.88
481.093	1746.88
481.197	1849.88
481.302	1761.88
481.407	1843.88
481.511	2929.88
481.616	1845.88
481.721	1714.88
481.825	1936.88
481.93	1759.88
482.035	1666.88
482.139	1854.88
482.244	1915.88
482.348	1847.88
482.453	1794.88
482.557	1920.88
482.662	1827.88
482.767	1734.88
482.871	1851.88
482.976	1812.88
483.08	1847.88
483.185	2074.88
483.289	1856.88
483.394	1881.88
483.498	1906.88
483.603	1886.88
483.707	1890.88
483.811	2013.88
483.916	1988.88
484.02	1901.88
484.125	1978.88
484.229	2013.88
484.333	2057.88
484.438	1867.88
484.542	1968.88
484.647	1959.88
484.751	1977.88
484.855	2054.88
484.96	1984.88
485.064	2004.88
485.168	2015.88
485.273	2077.88
485.377	2012.88
485.481	2225.88
485.585	2108.88
485.69	2065.88
485.794	2153.88
485.898	2119.88
486.002	2101.88
486.107	2133.88
486.211	2139.88
486.315	2258.88
486.419	2201.88
486.524	2148.88
486.628	2192.88
486.732	2107.88
486.836	2125.88
486.94	2291.88
487.044	2172.88
487.148	2168.88
487.253	2217.88
487.357	2155.88
487.461	2338.88
487.565	2180.88
487.669	2232.88
487.773	2195.88
487.877	2229.88
487.981	2281.88
488.085	2201.88
488.189	2149.88
488.293	2395.88
488.397	2595.88
488.501	2324.88
488.605	2193.88
488.709	2199.88
488.813	2214.88
488.917	2216.88
489.021	2247.88
489.125	2474.88
489.229	2201.88
489.333	2376.88
489.437	2261.88
489.541	2207.88
489.645	2284.88
489.749	2241.88
489.853	2304.88
489.956	2314.88
490.06	2280.88
490.164	2277.88
490.268	2254.88
490.372	2310.88
490.476	2275.88
490.579	2310.88
490.683	2910.88
490.787	2387.88
490.891	2274.88
490.995	2339.88
491.098	2290.88
491.202	2268.88
491.306	2374.88
491.41	2338.88
491.513	2327.88
491.617	2339.88
491.721	2443.88
491.824	2495.88
491.928	2322.88
492.032	2542.88
492.136	2319.88
492.239	2241.88
492.343	2415.88
492.446	2655.88
492.55	2369.88
492.654	2293.88
492.757	2282.88
492.861	2336.88
492.965	2323.88
493.068	2403.88
493.172	2284.88
493.275	2249.88
493.379	2322.88
493.482	2379.88
493.586	2489.88
493.689	2597.88
493.793	2286.88
493.896	2406.88
494	2387.88
494.103	2420.88
494.207	2560.88
494.31	2680.88
494.414	2419.88
494.517	2307.88
494.621	2205.88
494.724	2394.88
494.828	2187.88
494.931	2293.88
495.034	2287.88
495.138	2411.88
495.241	2225.88
495.345	3037.88
495.448	2413.88
495.551	2297.88
495.655	2360.88
495.758	2263.88
495.861	2248.88
495.965	2301.88
496.068	2348.88
496.171	2380.88
496.274	2303.88
496.378	2368.88
496.481	2281.88
496.584	2302.88
496.687	2379.88
496.791	2311.88
496.894	2399.88
496.997	2410.88
497.1	2317.88
497.204	2332.88
497.307	2252.88
497.41	2521.88
497.513	2539.88
497.616	2402.88
497.719	2399.88
497.823	2375.88
497.926	2419.88
498.029	2469.88
498.132	2405.88
498.235	2436.88
498.338	2601.88
498.441	2708.88
498.544	2537.88
498.647	2673.88
498.75	2762.88
498.853	2817.88
498.956	2776.88
499.059	2966.88
499.163	2851.88
499.266	2907.88
499.369	3057.88
499.471	3005.88
499.574	3256.88
499.677	3286.88
499.78	3322.88
499.883	3381.88
499.986	3458.88
500.089	3541.88
500.192	3568.88
500.295	3649.88
500.398	3652.88
500.501	3559.88
500.604	3493.88
500.707	3436.88
500.809	3373.88
500.912	3373.88
501.015	3360.88
501.118	3112.88
501.221	3068.88
501.324	2951.88
501.426	2845.88
501.529	2696.88
501.632	2696.88
501.735	2590.88
501.837	2486.88
501.94	2524.88
502.043	2506.88
502.146	2460.88
502.248	2389.88
502.351	2359.88
502.454	2324.88
502.557	2218.88
502.659	2340.88
502.762	2169.88
502.865	2130.88
502.967	2120.88
503.07	2175.88
503.173	2111.88
503.275	2097.88
503.378	2116.88
503.48	2003.88
503.583	2105.88
503.686	2189.88
503.788	2236.88
503.891	2073.88
503.993	2283.88
504.096	2052.88
504.198	2038.88
504.301	1932.88
504.403	1966.88
504.506	1963.88
504.608	1934.88
504.711	1971.88
504.813	1964.88
504.916	2009.88
505.018	1924.88
505.121	1765.88
505.223	1828.88
505.326	1831.88
505.428	1913.88
505.531	1804.88
505.633	1825.88
505.735	1761.88
505.838	1750.88
505.94	1776.88
506.042	1763.88
506.145	1688.88
506.247	1771.88
506.35	1707.88
506.452	1776.88
506.554	1752.88
506.656	1753.88
506.759	1678.88
506.861	1720.88
506.963	1668.88
507.066	1751.88
507.168	1826.88
507.27	1689.88
507.372	1684.88
507.475	1633.88
507.577	1698.88
507.679	1676.88
507.781	1601.88
507.883	1663.88
507.986	1604.88
508.088	1660.88
508.19	1600.88
508.292	1664.88
508.394	1597.88
508.496	1535.88
508.598	1605.88
508.701	1636.88
508.803	1625.88
508.905	1537.88
509.007	1681.88
509.109	1684.88
509.211	1569.88
509.313	1609.88
509.415	1539.88
509.517	1573.88
509.619	1573.88
509.721	1607.88
509.823	1553.88
509.925	1719.88
510.027	1609.88
510.129	1527.88
510.231	1552.88
510.333	1591.88
510.435	1466.88
510.537	1597.88
510.639	1642.88
510.741	1613.88
510.843	1639.88
510.945	1542.88
511.047	1667.88
511.148	1584.88
511.25	1528.88
511.352	1575.88
511.454	1458.88
511.556	1590.88
511.658	1607.88
511.76	1605.88
511.861	1723.88
511.963	1569.88
512.065	1554.88
512.167	1491.88
512.268	1753.88
512.37	1611.88
512.472	1553.88
512.574	1634.88
512.676	1685.88
512.777	1550.88
512.879	1559.88
512.981	1569.88
513.082	1571.88
513.184	1585.88
513.286	2049.88
513.387	1628.88
513.489	1644.88
513.591	1678.88
513.692	1639.88
513.794	1632.88
513.896	1495.88
513.997	1591.88
514.099	1573.88
514.2	1655.88
514.302	1642.88
514.404	1582.88
514.505	1543.88
514.607	1701.88
514.708	1591.88
514.81	1660.88
514.911	1718.88
515.013	1740.88
515.114	1689.88
515.216	1712.88
515.317	1736.88
515.419	1668.88
515.52	1692.88
515.622	1716.88
515.723	1787.88
515.825	1858.88
515.926	1821.88
516.027	1719.88
516.129	1696.88
516.23	1836.88
516.332	1757.88
516.433	1790.88
516.534	1913.88
516.636	1847.88
516.737	1715.88
516.838	2755.88
516.94	2043.88
517.041	1916.88
517.142	2017.88
517.244	2109.88
517.345	1963.88
517.446	2058.88
517.547	2093.88
517.649	1972.88
517.75	1952.88
517.851	2001.88
517.952	2255.88
518.054	2041.88
518.155	2172.88
518.256	2073.88
518.357	2149.88
518.458	1926.88
518.56	1971.88
518.661	1938.88
518.762	1988.88
518.863	2039.88
518.964	1995.88
519.065	1901.88
519.166	1909.88
519.268	1876.88
519.369	2036.88
519.47	1961.88
519.571	1919.88
519.672	1847.88
519.773	1864.88
519.874	1903.88
519.975	1900.88
520.076	1842.88
520.177	1981.88
520.278	1897.88
520.379	1920.88
520.48	1837.88
520.581	1798.88
520.682	1779.88
520.783	1762.88
520.884	1933.88
520.985	1836.88
521.086	1856.88
521.187	1899.88
521.288	1752.88
521.389	1834.88
521.489	1836.88
521.59	1814.88
521.691	1809.88
521.792	1811.88
521.893	1936.88
521.994	1947.88
522.095	1874.88
522.195	2019.88
522.296	1972.88
522.397	1945.88
522.498	1965.88
522.599	1796.88
522.699	1919.88
522.8	1899.88
522.901	1964.88
523.002	1851.88
523.102	2115.88
523.203	1894.88
523.304	2041.88
523.405	1878.88
523.505	1965.88
523.606	1914.88
523.707	1883.88
523.807	1989.88
523.908	1975.88
524.009	1973.88
524.109	2007.88
524.21	1931.88
524.31	1969.88
524.411	2081.88
524.512	2101.88
524.612	1952.88
524.713	2111.88
524.813	1996.88
524.914	2131.88
525.014	7135.88
525.115	2380.88
525.216	1847.88
525.316	1976.88
525.417	2012.88
525.517	1923.88
525.618	1867.88
525.718	1868.88
525.819	1859.88
525.919	1925.88
526.019	1889.88
526.12	1992.88
526.22	1828.88
526.321	1852.88
526.421	1887.88
526.522	1861.88
526.622	1828.88
526.722	1826.88
526.823	1849.88
526.923	1857.88
527.023	1989.88
527.124	1866.88
527.224	1929.88
527.324	1812.88
527.425	1918.88
527.525	1809.88
527.625	1878.88
527.726	1913.88
527.826	1948.88
527.926	1940.88
528.026	1932.88
528.127	1825.88
528.227	1889.88
528.327	2006.88
528.427	1869.88
528.528	1948.88
528.628	1963.88
528.728	1913.88
528.828	1957.88
528.928	2031.88
529.029	1933.88
529.129	1965.88
529.229	1979.88
529.329	1990.88
529.429	2020.88
529.529	1964.88
529.629	1984.88
529.729	1876.88
529.829	1986.88
529.93	1876.88
530.03	1947.88
530.13	1819.88
530.23	1872.88
530.33	1940.88
530.43	1794.88
530.53	1882.88
530.63	1929.88
530.73	1734.88
530.83	1757.88
530.93	1842.88
531.03	1792.88
531.13	1836.88
531.23	1755.88
531.33	1786.88
531.429	1812.88
531.529	1816.88
531.629	1854.88
531.729	1739.88
531.829	1720.88
531.929	1841.88
532.029	1811.88
532.129	1770.88
532.229	1861.88
532.328	1758.88
532.428	1708.88
532.528	1727.88
532.628	1732.88
532.728	1763.88
532.827	1644.88
532.927	1847.88
533.027	1731.88
533.127	1923.88
533.227	1827.88
533.326	1812.88
533.426	1677.88
533.526	1859.88
533.625	1837.88
533.725	1948.88
533.825	1813.88
533.924	1645.88
534.024	1583.88
534.124	1702.88
534.223	1740.88
534.323	2025.88
534.423	1730.88
534.522	1772.88
534.622	1597.88
534.722	1628.88
534.821	1737.88
534.921	1616.88
535.02	1589.88
535.12	1692.88
535.219	1781.88
535.319	1711.88
535.419	1719.88
535.518	1662.88
535.618	1651.88
535.717	1686.88
535.817	1624.88
535.916	1508.88
536.016	1626.88
536.115	1586.88
536.215	1494.88
536.314	1444.88
536.413	1476.88
536.513	1568.88
536.612	1441.88
536.712	1417.88
536.811	1535.88
536.91	1477.88
537.01	1448.88
537.109	1600.88
537.209	1528.88
537.308	1458.88
537.407	1564.88
537.507	1506.88
537.606	1465.88
537.705	1557.88
537.805	1469.88
537.904	1373.88
538.003	1520.88
538.102	1621.88
538.202	1518.88
538.301	1538.88
538.4	1552.88
538.499	1522.88
538.599	1530.88
538.698	1789.88
