Data from 7g_HRC06701__9__131.txt Node

Date: Thu Apr 18 01:49:58 CDT 2024
User: Estudiantes 2
Spectrometer: HR+C0670
Trigger mode: 4
Integration Time (sec): 1.000000E0
Scans to average: 1
Electric dark correction enabled: true
Nonlinearity correction enabled: false
Boxcar width: 0
XAxis mode: Wavelengths
Number of Pixels in Spectrum: 2048
>>>>>Begin Spectral Data<<<<<
407.81	-121.94
407.921	-121.94
408.032	-121.94
408.143	-113.94
408.254	-70.94
408.365	11.06
408.476	222.06
408.587	-6.94
408.699	-26.94
408.81	-19.94
408.921	-26.94
409.032	2.06
409.143	19.06
409.254	4.06
409.365	109.06
409.476	-34.94
409.587	-25.94
409.698	81.06
409.809	84.06
409.92	-43.94
410.031	-3.94
410.142	79.06
410.253	12.06
410.364	50.06
410.475	1096.06
410.585	5142.06
410.696	5606.06
410.807	5524.06
410.918	5377.06
411.029	5547.06
411.14	5633.06
411.251	5560.06
411.362	5603.06
411.472	5722.06
411.583	5624.06
411.694	5682.06
411.805	5678.06
411.916	5938.06
412.026	5652.06
412.137	5700.06
412.248	5657.06
412.359	5743.06
412.47	5620.06
412.58	5533.06
412.691	5634.06
412.802	5563.06
412.912	5593.06
413.023	5621.06
413.134	5510.06
413.245	5585.06
413.355	5591.06
413.466	5458.06
413.577	5598.06
413.687	5708.06
413.798	5491.06
413.909	5721.06
414.019	5652.06
414.13	5630.06
414.24	5569.06
414.351	5621.06
414.462	5829.06
414.572	5636.06
414.683	5639.06
414.793	5736.06
414.904	5852.06
415.014	5701.06
415.125	5631.06
415.235	5644.06
415.346	5783.06
415.456	5803.06
415.567	5568.06
415.677	5601.06
415.788	5656.06
415.898	5541.06
416.009	5555.06
416.119	5643.06
416.23	5657.06
416.34	5526.06
416.45	5605.06
416.561	6187.06
416.671	5653.06
416.782	5573.06
416.892	5713.06
417.002	5624.06
417.113	5722.06
417.223	5675.06
417.333	5733.06
417.444	5768.06
417.554	5864.06
417.664	5891.06
417.775	5685.06
417.885	5819.06
417.995	5862.06
418.106	6096.06
418.216	5931.06
418.326	6170.06
418.436	6091.06
418.547	6160.06
418.657	6169.06
418.767	6314.06
418.877	6204.06
418.987	6260.06
419.098	6308.06
419.208	6428.06
419.318	6347.06
419.428	6405.06
419.538	6224.06
419.648	6400.06
419.759	6411.06
419.869	6262.06
419.979	6246.06
420.089	6460.06
420.199	6354.06
420.309	6286.06
420.419	6297.06
420.529	6298.06
420.639	6568.06
420.749	6525.06
420.859	6505.06
420.969	6648.06
421.079	6756.06
421.189	6608.06
421.299	6407.06
421.409	6599.06
421.519	6780.06
421.629	6785.06
421.739	6639.06
421.849	6773.06
421.959	6776.06
422.069	6776.06
422.179	6762.06
422.289	6993.06
422.399	6998.06
422.509	7116.06
422.619	9946.06
422.729	7273.06
422.838	7110.06
422.948	7193.06
423.058	7159.06
423.168	7248.06
423.278	7329.06
423.388	7437.06
423.498	7524.06
423.607	7469.06
423.717	7804.06
423.827	7794.06
423.937	7708.06
424.046	7709.06
424.156	7789.06
424.266	7716.06
424.376	8013.06
424.485	7842.06
424.595	7827.06
424.705	7948.06
424.815	7897.06
424.924	8412.06
425.034	8039.06
425.144	8074.06
425.253	8081.06
425.363	8270.06
425.473	8277.06
425.582	8025.06
425.692	8238.06
425.801	8232.06
425.911	8457.06
426.021	8405.06
426.13	8677.06
426.24	8594.06
426.349	8748.06
426.459	8576.06
426.568	8692.06
426.678	8580.06
426.787	8786.06
426.897	8688.06
427.006	8781.06
427.116	8822.06
427.225	9006.06
427.335	9147.06
427.444	8893.06
427.554	8865.06
427.663	9013.06
427.773	8973.06
427.882	9086.06
427.992	9088.06
428.101	9312.06
428.21	9180.06
428.32	9510.06
428.429	9245.06
428.539	9653.06
428.648	9524.06
428.757	9292.06
428.867	9546.06
428.976	9900.06
429.085	9639.06
429.195	9804.06
429.304	9725.06
429.413	9843.06
429.523	9823.06
429.632	9861.06
429.741	9922.06
429.85	9924.06
429.96	9975.06
430.069	9967.06
430.178	10047.06
430.287	10372.06
430.397	10236.06
430.506	10248.06
430.615	10182.06
430.724	10362.06
430.833	10280.06
430.943	10354.06
431.052	10347.06
431.161	10456.06
431.27	10632.06
431.379	10680.06
431.488	11109.06
431.597	10764.06
431.706	10915.06
431.816	10887.06
431.925	10884.06
432.034	10839.06
432.143	11034.06
432.252	10948.06
432.361	10942.06
432.47	10908.06
432.579	10853.06
432.688	10862.06
432.797	10988.06
432.906	10835.06
433.015	10964.06
433.124	11136.06
433.233	11147.06
433.342	10918.06
433.451	11107.06
433.56	11084.06
433.669	10997.06
433.778	11049.06
433.886	11239.06
433.995	11276.06
434.104	11500.06
434.213	11355.06
434.322	11577.06
434.431	11617.06
434.54	11839.06
434.649	12214.06
434.757	11916.06
434.866	11720.06
434.975	11761.06
435.084	11648.06
435.193	11346.06
435.301	11559.06
435.41	11376.06
435.519	11363.06
435.628	10729.06
435.737	10884.06
435.845	10632.06
435.954	10322.06
436.063	10532.06
436.171	10495.06
436.28	10483.06
436.389	10685.06
436.498	10236.06
436.606	10292.06
436.715	10485.06
436.823	10148.06
436.932	10000.06
437.041	9991.06
437.149	9970.06
437.258	9847.06
437.367	9624.06
437.475	9690.06
437.584	9969.06
437.692	9751.06
437.801	11211.06
437.91	9634.06
438.018	9516.06
438.127	9546.06
438.235	9550.06
438.344	9651.06
438.452	9622.06
438.561	9534.06
438.669	9531.06
438.778	9225.06
438.886	9549.06
438.995	9263.06
439.103	9531.06
439.212	9419.06
439.32	9444.06
439.428	9411.06
439.537	9407.06
439.645	9592.06
439.754	9571.06
439.862	9367.06
439.97	9473.06
440.079	9575.06
440.187	9412.06
440.295	9712.06
440.404	9622.06
440.512	9559.06
440.62	9886.06
440.729	9724.06
440.837	9804.06
440.945	10610.06
441.054	10156.06
441.162	9990.06
441.27	10336.06
441.378	10451.06
441.487	10425.06
441.595	10793.06
441.703	10525.06
441.811	10204.06
441.92	10251.06
442.028	9850.06
442.136	10081.06
442.244	10052.06
442.352	10092.06
442.461	9743.06
442.569	9905.06
442.677	9890.06
442.785	10079.06
442.893	9775.06
443.001	9829.06
443.109	9844.06
443.217	9937.06
443.325	10022.06
443.434	10685.06
443.542	10394.06
443.65	10349.06
443.758	10462.06
443.866	10416.06
443.974	10787.06
444.082	10621.06
444.19	10903.06
444.298	10929.06
444.406	11117.06
444.514	11428.06
444.622	11335.06
444.73	11348.06
444.838	11259.06
444.946	11188.06
445.054	10844.06
445.161	10764.06
445.269	10522.06
445.377	10652.06
445.485	10456.06
445.593	10397.06
445.701	10327.06
445.809	10352.06
445.917	10282.06
446.025	10206.06
446.132	10296.06
446.24	10242.06
446.348	10107.06
446.456	10085.06
446.564	10216.06
446.671	10118.06
446.779	10042.06
446.887	9929.06
446.995	9954.06
447.102	10185.06
447.21	9937.06
447.318	10101.06
447.426	9792.06
447.533	10259.06
447.641	11204.06
447.749	9984.06
447.856	10052.06
447.964	10107.06
448.072	10129.06
448.179	10017.06
448.287	10091.06
448.395	10143.06
448.502	10010.06
448.61	10053.06
448.718	10073.06
448.825	10111.06
448.933	9957.06
449.04	10157.06
449.148	10337.06
449.256	10416.06
449.363	10311.06
449.471	10476.06
449.578	10505.06
449.686	10508.06
449.793	10705.06
449.901	10596.06
450.008	10698.06
450.116	10826.06
450.223	10937.06
450.331	11088.06
450.438	11175.06
450.546	11151.06
450.653	11203.06
450.76	11430.06
450.868	11300.06
450.975	11555.06
451.083	11464.06
451.19	11616.06
451.297	11395.06
451.405	11526.06
451.512	11579.06
451.619	11616.06
451.727	11823.06
451.834	11835.06
451.941	11710.06
452.049	11793.06
452.156	11833.06
452.263	11920.06
452.371	12011.06
452.478	11978.06
452.585	12096.06
452.692	11991.06
452.8	12129.06
452.907	12316.06
453.014	12200.06
453.121	12293.06
453.229	12295.06
453.336	12366.06
453.443	12470.06
453.55	12512.06
453.657	12283.06
453.765	12689.06
453.872	12527.06
453.979	12781.06
454.086	12747.06
454.193	12839.06
454.3	12549.06
454.407	12799.06
454.514	12924.06
454.621	12768.06
454.729	12867.06
454.836	12952.06
454.943	13141.06
455.05	13027.06
455.157	13097.06
455.264	13019.06
455.371	13185.06
455.478	13151.06
455.585	14542.06
455.692	13582.06
455.799	13722.06
455.906	13493.06
456.013	13469.06
456.12	13577.06
456.227	13789.06
456.334	13810.06
456.44	13885.06
456.547	14035.06
456.654	13823.06
456.761	13988.06
456.868	13978.06
456.975	14002.06
457.082	14075.06
457.189	14021.06
457.296	14149.06
457.402	14334.06
457.509	14182.06
457.616	14432.06
457.723	14542.06
457.83	14542.06
457.936	14542.06
458.043	14542.06
458.15	14542.06
458.257	14542.06
458.363	14542.06
458.47	14542.06
458.577	14542.06
458.684	14542.06
458.79	14542.06
458.897	14542.06
459.004	14542.06
459.11	14542.06
459.217	14542.06
459.324	14542.06
459.43	14542.06
459.537	14542.06
459.644	14542.06
459.75	14542.06
459.857	14542.06
459.964	14542.06
460.07	14542.06
460.177	14542.06
460.283	14542.06
460.39	14542.06
460.496	14542.06
460.603	14542.06
460.71	14542.06
460.816	14542.06
460.923	14542.06
461.029	14542.06
461.136	14542.06
461.242	14542.06
461.349	14542.06
461.455	14542.06
461.562	14542.06
461.668	14542.06
461.774	14542.06
461.881	14542.06
461.987	14542.06
462.094	14542.06
462.2	14542.06
462.307	14542.06
462.413	14542.06
462.519	14542.06
462.626	14542.06
462.732	14542.06
462.838	14542.06
462.945	14542.06
463.051	14542.06
463.157	14542.06
463.264	14542.06
463.37	14542.06
463.476	14542.06
463.583	14542.06
463.689	14542.06
463.795	14542.06
463.901	14542.06
464.008	14542.06
464.114	14542.06
464.22	14542.06
464.326	14542.06
464.433	14542.06
464.539	14542.06
464.645	14542.06
464.751	14542.06
464.857	14542.06
464.963	14542.06
465.07	14542.06
465.176	14542.06
465.282	14542.06
465.388	14542.06
465.494	14542.06
465.6	14542.06
465.706	14542.06
465.812	14542.06
465.918	14542.06
466.024	14542.06
466.131	14524.06
466.237	14374.06
466.343	14245.06
466.449	13987.06
466.555	13884.06
466.661	13692.06
466.767	13699.06
466.873	13344.06
466.979	13693.06
467.085	13431.06
467.191	13423.06
467.296	13325.06
467.402	13238.06
467.508	13143.06
467.614	13189.06
467.72	12815.06
467.826	12731.06
467.932	12748.06
468.038	12511.06
468.144	12459.06
468.25	12114.06
468.355	12437.06
468.461	12334.06
468.567	12211.06
468.673	12267.06
468.779	12241.06
468.885	12043.06
468.99	11992.06
469.096	12099.06
469.202	12137.06
469.308	12119.06
469.413	12291.06
469.519	12210.06
469.625	12230.06
469.731	12234.06
469.836	12403.06
469.942	12399.06
470.048	12318.06
470.153	12490.06
470.259	12222.06
470.365	12385.06
470.47	12410.06
470.576	12235.06
470.682	12126.06
470.787	12185.06
470.893	11795.06
470.999	11915.06
471.104	11779.06
471.21	11674.06
471.315	11366.06
471.421	11256.06
471.527	11528.06
471.632	11217.06
471.738	11151.06
471.843	10993.06
471.949	10951.06
472.054	10953.06
472.16	10810.06
472.265	10774.06
472.371	10676.06
472.476	10619.06
472.582	10828.06
472.687	10504.06
472.793	10401.06
472.898	10417.06
473.003	10347.06
473.109	10386.06
473.214	10239.06
473.32	10284.06
473.425	10245.06
473.53	10285.06
473.636	10270.06
473.741	10282.06
473.847	10002.06
473.952	10210.06
474.057	10140.06
474.163	10193.06
474.268	10196.06
474.373	10229.06
474.478	10149.06
474.584	10157.06
474.689	10084.06
474.794	10068.06
474.9	10369.06
475.005	10010.06
475.11	10407.06
475.215	10230.06
475.321	10222.06
475.426	10468.06
475.531	10227.06
475.636	10226.06
475.741	10225.06
475.846	10356.06
475.952	10627.06
476.057	10466.06
476.162	10429.06
476.267	10764.06
476.372	10733.06
476.477	10454.06
476.582	10675.06
476.687	10623.06
476.793	10588.06
476.898	10642.06
477.003	10700.06
477.108	10741.06
477.213	10776.06
477.318	10967.06
477.423	10945.06
477.528	11136.06
477.633	11298.06
477.738	11402.06
477.843	11289.06
477.948	11360.06
478.053	11485.06
478.158	11539.06
478.263	11643.06
478.368	11705.06
478.473	11958.06
478.578	11931.06
478.682	12016.06
478.787	12006.06
478.892	12031.06
478.997	12311.06
479.102	12090.06
479.207	11969.06
479.312	12216.06
479.417	12278.06
479.521	12242.06
479.626	12516.06
479.731	12510.06
479.836	12537.06
479.941	12820.06
480.045	12847.06
480.15	13004.06
480.255	13057.06
480.36	13015.06
480.465	12912.06
480.569	13209.06
480.674	12932.06
480.779	12689.06
480.883	12809.06
480.988	12893.06
481.093	12855.06
481.197	12527.06
481.302	12514.06
481.407	12855.06
481.511	13959.06
481.616	12695.06
481.721	12633.06
481.825	12906.06
481.93	12586.06
482.035	12618.06
482.139	12706.06
482.244	12682.06
482.348	12834.06
482.453	12975.06
482.557	13017.06
482.662	13052.06
482.767	13068.06
482.871	13080.06
482.976	13102.06
483.08	13278.06
483.185	13379.06
483.289	13315.06
483.394	13448.06
483.498	13558.06
483.603	13637.06
483.707	13675.06
483.811	13829.06
483.916	13858.06
484.02	13837.06
484.125	14069.06
484.229	13933.06
484.333	14318.06
484.438	14343.06
484.542	14354.06
484.647	14486.06
484.751	14542.06
484.855	14542.06
484.96	14542.06
485.064	14542.06
485.168	14542.06
485.273	14542.06
485.377	14542.06
485.481	14542.06
485.585	14542.06
485.69	14542.06
485.794	14542.06
485.898	14542.06
486.002	14542.06
486.107	14542.06
486.211	14542.06
486.315	14542.06
486.419	14542.06
486.524	14542.06
486.628	14542.06
486.732	14542.06
486.836	14542.06
486.94	14542.06
487.044	14542.06
487.148	14542.06
487.253	14542.06
487.357	14542.06
487.461	14542.06
487.565	14542.06
487.669	14542.06
487.773	14542.06
487.877	14542.06
487.981	14542.06
488.085	14542.06
488.189	14542.06
488.293	14542.06
488.397	14542.06
488.501	14542.06
488.605	14542.06
488.709	14542.06
488.813	14542.06
488.917	14542.06
489.021	14542.06
489.125	14542.06
489.229	14542.06
489.333	14542.06
489.437	14542.06
489.541	14542.06
489.645	14542.06
489.749	14542.06
489.853	14542.06
489.956	14542.06
490.06	14542.06
490.164	14542.06
490.268	14542.06
490.372	14542.06
490.476	14542.06
490.579	14542.06
490.683	14542.06
490.787	14542.06
490.891	14542.06
490.995	14542.06
491.098	14542.06
491.202	14542.06
491.306	14542.06
491.41	14542.06
491.513	14542.06
491.617	14542.06
491.721	14542.06
491.824	14542.06
491.928	14542.06
492.032	14542.06
492.136	14542.06
492.239	14542.06
492.343	14542.06
492.446	14542.06
492.55	14542.06
492.654	14542.06
492.757	14542.06
492.861	14542.06
492.965	14542.06
493.068	14542.06
493.172	14542.06
493.275	14542.06
493.379	14542.06
493.482	14542.06
493.586	14542.06
493.689	14542.06
493.793	14542.06
493.896	14542.06
494	14542.06
494.103	14542.06
494.207	14542.06
494.31	14542.06
494.414	14542.06
494.517	14542.06
494.621	14542.06
494.724	14542.06
494.828	14542.06
494.931	14542.06
495.034	14542.06
495.138	14542.06
495.241	14542.06
495.345	14542.06
495.448	14542.06
495.551	14542.06
495.655	14542.06
495.758	14542.06
495.861	14542.06
495.965	14542.06
496.068	14542.06
496.171	14542.06
496.274	14542.06
496.378	14542.06
496.481	14542.06
496.584	14542.06
496.687	14542.06
496.791	14542.06
496.894	14542.06
496.997	14542.06
497.1	14542.06
497.204	14542.06
497.307	14542.06
497.41	14542.06
497.513	14542.06
497.616	14542.06
497.719	14542.06
497.823	14542.06
497.926	14542.06
498.029	14542.06
498.132	14542.06
498.235	14542.06
498.338	14542.06
498.441	14542.06
498.544	14542.06
498.647	14542.06
498.75	14542.06
498.853	14542.06
498.956	14542.06
499.059	14542.06
499.163	14542.06
499.266	14542.06
499.369	14542.06
499.471	14542.06
499.574	14542.06
499.677	14542.06
499.78	14542.06
499.883	14542.06
499.986	14542.06
500.089	14542.06
500.192	14542.06
500.295	14542.06
500.398	14542.06
500.501	14542.06
500.604	14542.06
500.707	14542.06
500.809	14542.06
500.912	14542.06
501.015	14542.06
501.118	14542.06
501.221	14542.06
501.324	14542.06
501.426	14542.06
501.529	14542.06
501.632	14542.06
501.735	14542.06
501.837	14542.06
501.94	14542.06
502.043	14542.06
502.146	14542.06
502.248	14542.06
502.351	14542.06
502.454	14542.06
502.557	14542.06
502.659	14542.06
502.762	14542.06
502.865	14542.06
502.967	14542.06
503.07	14542.06
503.173	14542.06
503.275	14542.06
503.378	14542.06
503.48	14542.06
503.583	14542.06
503.686	14350.06
503.788	14542.06
503.891	14258.06
503.993	14497.06
504.096	14114.06
504.198	14381.06
504.301	14349.06
504.403	14236.06
504.506	13963.06
504.608	13972.06
504.711	13763.06
504.813	13586.06
504.916	13347.06
505.018	12857.06
505.121	12692.06
505.223	12671.06
505.326	12475.06
505.428	12357.06
505.531	12170.06
505.633	12056.06
505.735	11849.06
505.838	11831.06
505.94	11901.06
506.042	11670.06
506.145	11480.06
506.247	11661.06
506.35	11420.06
506.452	11412.06
506.554	11456.06
506.656	11204.06
506.759	11233.06
506.861	11325.06
506.963	11124.06
507.066	11192.06
507.168	11249.06
507.27	11056.06
507.372	10903.06
507.475	10997.06
507.577	10983.06
507.679	10745.06
507.781	10654.06
507.883	10679.06
507.986	10712.06
508.088	10543.06
508.19	10636.06
508.292	10626.06
508.394	10424.06
508.496	10451.06
508.598	10459.06
508.701	10425.06
508.803	10461.06
508.905	10490.06
509.007	10420.06
509.109	10439.06
509.211	10400.06
509.313	10391.06
509.415	10200.06
509.517	10262.06
509.619	10148.06
509.721	10204.06
509.823	10136.06
509.925	10388.06
510.027	9986.06
510.129	10078.06
510.231	10172.06
510.333	10125.06
510.435	10136.06
510.537	10149.06
510.639	10227.06
510.741	10055.06
510.843	10083.06
510.945	10080.06
511.047	10170.06
511.148	10206.06
511.25	10175.06
511.352	10190.06
511.454	10070.06
511.556	10341.06
511.658	10051.06
511.76	10139.06
511.861	10476.06
511.963	10041.06
512.065	10098.06
512.167	10055.06
512.268	10544.06
512.37	10296.06
512.472	10201.06
512.574	10304.06
512.676	10248.06
512.777	10284.06
512.879	10358.06
512.981	10180.06
513.082	10243.06
513.184	10427.06
513.286	10763.06
513.387	10380.06
513.489	10582.06
513.591	10268.06
513.692	10527.06
513.794	10528.06
513.896	10368.06
513.997	10497.06
514.099	10485.06
514.2	10667.06
514.302	10670.06
514.404	10611.06
514.505	10751.06
514.607	10796.06
514.708	10703.06
514.81	10872.06
514.911	10936.06
515.013	10996.06
515.114	10929.06
515.216	11105.06
515.317	11183.06
515.419	11189.06
515.52	11334.06
515.622	11304.06
515.723	11297.06
515.825	11836.06
515.926	11613.06
516.027	11667.06
516.129	11931.06
516.23	12198.06
516.332	12251.06
516.433	12319.06
516.534	12355.06
516.636	12589.06
516.737	12694.06
516.838	13963.06
516.94	13257.06
517.041	13429.06
517.142	13771.06
517.244	13723.06
517.345	13876.06
517.446	14025.06
517.547	14150.06
517.649	14101.06
517.75	14212.06
517.851	13989.06
517.952	14287.06
518.054	14122.06
518.155	14015.06
518.256	13613.06
518.357	13736.06
518.458	13153.06
518.56	13268.06
518.661	13067.06
518.762	13010.06
518.863	12883.06
518.964	12765.06
519.065	12552.06
519.166	12525.06
519.268	12426.06
519.369	12516.06
519.47	12277.06
519.571	12269.06
519.672	12212.06
519.773	12306.06
519.874	12076.06
519.975	11978.06
520.076	12023.06
520.177	12029.06
520.278	11943.06
520.379	12116.06
520.48	11827.06
520.581	11642.06
520.682	11822.06
520.783	11903.06
520.884	11953.06
520.985	11881.06
521.086	11820.06
521.187	11868.06
521.288	11631.06
521.389	11816.06
521.489	11643.06
521.59	11691.06
521.691	11584.06
521.792	11547.06
521.893	11725.06
521.994	11613.06
522.095	11683.06
522.195	11618.06
522.296	11804.06
522.397	11738.06
522.498	11613.06
522.599	11658.06
522.699	11753.06
522.8	11507.06
522.901	11716.06
523.002	11588.06
523.102	11812.06
523.203	11610.06
523.304	11811.06
523.405	11607.06
523.505	11593.06
523.606	11649.06
523.707	11731.06
523.807	11620.06
523.908	11619.06
524.009	11932.06
524.109	11749.06
524.21	11580.06
524.31	11692.06
524.411	11806.06
524.512	11714.06
524.612	11650.06
524.713	11819.06
524.813	11661.06
524.914	11820.06
525.014	14542.06
525.115	11884.06
525.216	11678.06
525.316	11737.06
525.417	11612.06
525.517	11593.06
525.618	11842.06
525.718	11545.06
525.819	11559.06
525.919	11703.06
526.019	11733.06
526.12	11478.06
526.22	11689.06
526.321	11677.06
526.421	11772.06
526.522	11726.06
526.622	11686.06
526.722	11697.06
526.823	11721.06
526.923	11732.06
527.023	11720.06
527.124	11736.06
527.224	11789.06
527.324	11645.06
527.425	11660.06
527.525	11569.06
527.625	11639.06
527.726	11726.06
527.826	11762.06
527.926	11800.06
528.026	11647.06
528.127	11489.06
528.227	11555.06
528.327	11741.06
528.427	11493.06
528.528	11622.06
528.628	11711.06
528.728	11536.06
528.828	11563.06
528.928	11704.06
529.029	11469.06
529.129	11519.06
529.229	11587.06
529.329	11404.06
529.429	11587.06
529.529	11626.06
529.629	11530.06
529.729	11325.06
529.829	11474.06
529.93	11327.06
530.03	11517.06
530.13	11209.06
530.23	11306.06
530.33	11400.06
530.43	11306.06
530.53	11399.06
530.63	11268.06
530.73	11372.06
530.83	11127.06
530.93	11081.06
531.03	11196.06
531.13	11317.06
531.23	11076.06
531.33	11183.06
531.429	11187.06
531.529	11254.06
531.629	11144.06
531.729	11050.06
531.829	11104.06
531.929	11198.06
532.029	11073.06
532.129	11044.06
