Data from 7g_HRC06701__48__170.txt Node

Date: Thu Apr 18 01:50:37 CDT 2024
User: Estudiantes 2
Spectrometer: HR+C0670
Trigger mode: 4
Integration Time (sec): 1.000000E0
Scans to average: 1
Electric dark correction enabled: true
Nonlinearity correction enabled: false
Boxcar width: 0
XAxis mode: Wavelengths
Number of Pixels in Spectrum: 2048
>>>>>Begin Spectral Data<<<<<
407.81	-150.56
407.921	-150.56
408.032	-150.56
408.143	-124.56
408.254	-84.56
408.365	22.44
408.476	214.44
408.587	18.44
408.699	-33.56
408.81	-18.56
408.921	-17.56
409.032	-39.56
409.143	24.44
409.254	34.44
409.365	89.44
409.476	-60.56
409.587	32.44
409.698	93.44
409.809	92.44
409.92	-17.56
410.031	21.44
410.142	44.44
410.253	3.44
410.364	54.44
410.475	1377.44
410.585	6692.44
410.696	7196.44
410.807	7013.44
410.918	7050.44
411.029	7126.44
411.14	7103.44
411.251	7073.44
411.362	7119.44
411.472	7287.44
411.583	7070.44
411.694	7332.44
411.805	7246.44
411.916	7500.44
412.026	7195.44
412.137	7424.44
412.248	7246.44
412.359	7236.44
412.47	7173.44
412.58	7052.44
412.691	7160.44
412.802	7012.44
412.912	7184.44
413.023	7067.44
413.134	7117.44
413.245	7057.44
413.355	7123.44
413.466	7212.44
413.577	7044.44
413.687	7228.44
413.798	7005.44
413.909	7168.44
414.019	7150.44
414.13	7160.44
414.24	7040.44
414.351	7338.44
414.462	7416.44
414.572	7262.44
414.683	7356.44
414.793	7266.44
414.904	7404.44
415.014	7133.44
415.125	7193.44
415.235	7220.44
415.346	7286.44
415.456	7295.44
415.567	7071.44
415.677	7180.44
415.788	7276.44
415.898	7113.44
416.009	7052.44
416.119	7209.44
416.23	6965.44
416.34	6988.44
416.45	7114.44
416.561	7941.44
416.671	7164.44
416.782	7166.44
416.892	7240.44
417.002	7217.44
417.113	7443.44
417.223	7215.44
417.333	7345.44
417.444	7345.44
417.554	7461.44
417.664	7549.44
417.775	7308.44
417.885	7647.44
417.995	7510.44
418.106	7950.44
418.216	7644.44
418.326	7983.44
418.436	8047.44
418.547	8070.44
418.657	7997.44
418.767	8143.44
418.877	8040.44
418.987	8292.44
419.098	8083.44
419.208	8275.44
419.318	8240.44
419.428	8277.44
419.538	8084.44
419.648	8243.44
419.759	8161.44
419.869	8191.44
419.979	8184.44
420.089	8195.44
420.199	8155.44
420.309	8351.44
420.419	8346.44
420.529	8382.44
420.639	8475.44
420.749	8344.44
420.859	8401.44
420.969	8501.44
421.079	8779.44
421.189	8443.44
421.299	8355.44
421.409	8464.44
421.519	8576.44
421.629	8560.44
421.739	8520.44
421.849	8687.44
421.959	8627.44
422.069	8749.44
422.179	8780.44
422.289	8950.44
422.399	8996.44
422.509	8963.44
422.619	12048.44
422.729	9477.44
422.838	9125.44
422.948	9448.44
423.058	9449.44
423.168	9425.44
423.278	9466.44
423.388	9623.44
423.498	9922.44
423.607	9942.44
423.717	10112.44
423.827	10106.44
423.937	9940.44
424.046	9955.44
424.156	10262.44
424.266	9902.44
424.376	10349.44
424.485	10319.44
424.595	10337.44
424.705	10472.44
424.815	10232.44
424.924	10796.44
425.034	10435.44
425.144	10302.44
425.253	10468.44
425.363	10742.44
425.473	10653.44
425.582	10434.44
425.692	10759.44
425.801	10533.44
425.911	10975.44
426.021	10827.44
426.13	11079.44
426.24	11041.44
426.349	11112.44
426.459	10970.44
426.568	11057.44
426.678	11328.44
426.787	11175.44
426.897	11136.44
427.006	11220.44
427.116	11347.44
427.225	11516.44
427.335	11613.44
427.444	11495.44
427.554	11438.44
427.663	11573.44
427.773	11496.44
427.882	11897.44
427.992	11797.44
428.101	11823.44
428.21	11785.44
428.32	12117.44
428.429	11851.44
428.539	12463.44
428.648	12107.44
428.757	12002.44
428.867	12231.44
428.976	12396.44
429.085	12447.44
429.195	12380.44
429.304	12401.44
429.413	12397.44
429.523	12616.44
429.632	12667.44
429.741	12541.44
429.85	12554.44
429.96	12751.44
430.069	12626.44
430.178	12882.44
430.287	13180.44
430.397	13092.44
430.506	12957.44
430.615	13174.44
430.724	13276.44
430.833	13197.44
430.943	13162.44
431.052	13329.44
431.161	13429.44
431.27	13604.44
431.379	13625.44
431.488	14186.44
431.597	13924.44
431.706	14040.44
431.816	14134.44
431.925	13978.44
432.034	13992.44
432.143	14035.44
432.252	13795.44
432.361	13970.44
432.47	13922.44
432.579	13828.44
432.688	13808.44
432.797	13850.44
432.906	13707.44
433.015	13896.44
433.124	14016.44
433.233	14131.44
433.342	13956.44
433.451	14076.44
433.56	14130.44
433.669	14096.44
433.778	14142.44
433.886	14325.44
433.995	14237.44
434.104	14537.44
434.213	14537.44
434.322	14537.44
434.431	14537.44
434.54	14537.44
434.649	14537.44
434.757	14537.44
434.866	14537.44
434.975	14537.44
435.084	14537.44
435.193	14537.44
435.301	14537.44
435.41	14463.44
435.519	14487.44
435.628	13810.44
435.737	13597.44
435.845	13588.44
435.954	13399.44
436.063	13254.44
436.171	13479.44
436.28	13328.44
436.389	13639.44
436.498	13163.44
436.606	13297.44
436.715	13430.44
436.823	12984.44
436.932	12939.44
437.041	12878.44
437.149	12813.44
437.258	12537.44
437.367	12305.44
437.475	12505.44
437.584	12695.44
437.692	12180.44
437.801	13742.44
437.91	12385.44
438.018	12213.44
438.127	12257.44
438.235	12256.44
438.344	12346.44
438.452	12090.44
438.561	11975.44
438.669	11941.44
438.778	11853.44
438.886	12023.44
438.995	12031.44
439.103	12079.44
439.212	12087.44
439.32	12267.44
439.428	12002.44
439.537	12177.44
439.645	12324.44
439.754	12360.44
439.862	12055.44
439.97	12226.44
440.079	12239.44
440.187	12087.44
440.295	12517.44
440.404	12407.44
440.512	12439.44
440.62	12611.44
440.729	12651.44
440.837	12836.44
440.945	13590.44
441.054	12929.44
441.162	13272.44
441.27	13374.44
441.378	13627.44
441.487	13593.44
441.595	13981.44
441.703	13639.44
441.811	13447.44
441.92	13345.44
442.028	12944.44
442.136	13127.44
442.244	13078.44
442.352	13145.44
442.461	12788.44
442.569	12823.44
442.677	12989.44
442.785	13078.44
442.893	12712.44
443.001	12966.44
443.109	12896.44
443.217	13023.44
443.325	12957.44
443.434	13671.44
443.542	13428.44
443.65	13271.44
443.758	13511.44
443.866	13547.44
443.974	13791.44
444.082	13948.44
444.19	14367.44
444.298	14446.44
444.406	14537.44
444.514	14537.44
444.622	14537.44
444.73	14537.44
444.838	14537.44
444.946	14537.44
445.054	14153.44
445.161	14311.44
445.269	13788.44
445.377	13714.44
445.485	13857.44
445.593	13377.44
445.701	13475.44
445.809	13395.44
445.917	13388.44
446.025	13296.44
446.132	13381.44
446.24	13393.44
446.348	13296.44
446.456	13103.44
446.564	13241.44
446.671	13005.44
446.779	12938.44
446.887	13130.44
446.995	12943.44
447.102	12931.44
447.21	12963.44
447.318	13004.44
447.426	12903.44
447.533	13210.44
447.641	14038.44
447.749	12777.44
447.856	12803.44
447.964	13120.44
448.072	12886.44
448.179	12899.44
448.287	12997.44
448.395	12996.44
448.502	12880.44
448.61	12990.44
448.718	12983.44
448.825	13024.44
448.933	13100.44
449.04	13099.44
449.148	13061.44
449.256	13266.44
449.363	13307.44
449.471	13421.44
449.578	13617.44
449.686	13505.44
449.793	13755.44
449.901	13698.44
450.008	13920.44
450.116	13873.44
450.223	14009.44
450.331	14135.44
450.438	14326.44
450.546	14378.44
450.653	14423.44
450.76	14537.44
450.868	14537.44
450.975	14537.44
451.083	14537.44
451.19	14537.44
451.297	14537.44
451.405	14537.44
451.512	14537.44
451.619	14537.44
451.727	14537.44
451.834	14537.44
451.941	14537.44
452.049	14537.44
452.156	14537.44
452.263	14537.44
452.371	14537.44
452.478	14537.44
452.585	14537.44
452.692	14537.44
452.8	14537.44
452.907	14537.44
453.014	14537.44
453.121	14537.44
453.229	14537.44
453.336	14537.44
453.443	14537.44
453.55	14537.44
453.657	14537.44
453.765	14537.44
453.872	14537.44
453.979	14537.44
454.086	14537.44
454.193	14537.44
454.3	14537.44
454.407	14537.44
454.514	14537.44
454.621	14537.44
454.729	14537.44
454.836	14537.44
454.943	14537.44
455.05	14537.44
455.157	14537.44
455.264	14537.44
455.371	14537.44
455.478	14537.44
455.585	14537.44
455.692	14537.44
455.799	14537.44
455.906	14537.44
456.013	14537.44
456.12	14537.44
456.227	14537.44
456.334	14537.44
456.44	14537.44
456.547	14537.44
456.654	14537.44
456.761	14537.44
456.868	14537.44
456.975	14537.44
457.082	14537.44
457.189	14537.44
457.296	14537.44
457.402	14537.44
457.509	14537.44
457.616	14537.44
457.723	14537.44
457.83	14537.44
457.936	14537.44
458.043	14537.44
458.15	14537.44
458.257	14537.44
458.363	14537.44
458.47	14537.44
458.577	14537.44
458.684	14537.44
458.79	14537.44
458.897	14537.44
459.004	14537.44
459.11	14537.44
459.217	14537.44
459.324	14537.44
459.43	14537.44
459.537	14537.44
459.644	14537.44
459.75	14537.44
459.857	14537.44
459.964	14537.44
460.07	14537.44
460.177	14537.44
460.283	14537.44
460.39	14537.44
460.496	14537.44
460.603	14537.44
460.71	14537.44
460.816	14537.44
460.923	14537.44
461.029	14537.44
461.136	14537.44
461.242	14537.44
461.349	14537.44
461.455	14537.44
461.562	14537.44
461.668	14537.44
461.774	14537.44
461.881	14537.44
461.987	14537.44
462.094	14537.44
462.2	14537.44
462.307	14537.44
462.413	14537.44
462.519	14537.44
462.626	14537.44
462.732	14537.44
462.838	14537.44
462.945	14537.44
463.051	14537.44
463.157	14537.44
463.264	14537.44
463.37	14537.44
463.476	14537.44
463.583	14537.44
463.689	14537.44
463.795	14537.44
463.901	14537.44
464.008	14537.44
464.114	14537.44
464.22	14537.44
464.326	14537.44
464.433	14537.44
464.539	14537.44
464.645	14537.44
464.751	14537.44
464.857	14537.44
464.963	14537.44
465.07	14537.44
465.176	14537.44
465.282	14537.44
465.388	14537.44
465.494	14537.44
465.6	14537.44
465.706	14537.44
465.812	14537.44
465.918	14537.44
466.024	14537.44
466.131	14537.44
466.237	14537.44
466.343	14537.44
466.449	14537.44
466.555	14537.44
466.661	14537.44
466.767	14537.44
466.873	14537.44
466.979	14537.44
467.085	14537.44
467.191	14537.44
467.296	14537.44
467.402	14537.44
467.508	14537.44
467.614	14537.44
467.72	14537.44
467.826	14537.44
467.932	14537.44
468.038	14537.44
468.144	14537.44
468.25	14537.44
468.355	14537.44
468.461	14537.44
468.567	14537.44
468.673	14537.44
468.779	14537.44
468.885	14537.44
468.99	14537.44
469.096	14537.44
469.202	14537.44
469.308	14537.44
469.413	14537.44
469.519	14537.44
469.625	14537.44
469.731	14537.44
469.836	14537.44
469.942	14537.44
470.048	14537.44
470.153	14537.44
470.259	14537.44
470.365	14537.44
470.47	14537.44
470.576	14537.44
470.682	14537.44
470.787	14537.44
470.893	14537.44
470.999	14537.44
471.104	14537.44
471.21	14537.44
471.315	14537.44
471.421	14534.44
471.527	14537.44
471.632	14428.44
471.738	14245.44
471.843	14059.44
471.949	14081.44
472.054	14041.44
472.16	13809.44
472.265	13658.44
472.371	13699.44
472.476	13679.44
472.582	13660.44
472.687	13403.44
472.793	13275.44
472.898	13255.44
473.003	13217.44
473.109	13234.44
473.214	13165.44
473.32	13145.44
473.425	13086.44
473.53	13154.44
473.636	12901.44
473.741	12790.44
473.847	12982.44
473.952	13090.44
474.057	12856.44
474.163	13131.44
474.268	13071.44
474.373	12971.44
474.478	12812.44
474.584	12800.44
474.689	12889.44
474.794	12982.44
474.9	13255.44
475.005	12869.44
475.11	13064.44
475.215	12922.44
475.321	12968.44
475.426	13148.44
475.531	13072.44
475.636	13059.44
475.741	12972.44
475.846	13342.44
475.952	13398.44
476.057	13208.44
476.162	13375.44
476.267	13308.44
476.372	13515.44
476.477	13047.44
476.582	13408.44
476.687	13324.44
476.793	13425.44
476.898	13622.44
477.003	13627.44
477.108	13731.44
477.213	13849.44
477.318	13776.44
477.423	14136.44
477.528	14200.44
477.633	14421.44
477.738	14383.44
477.843	14438.44
477.948	14533.44
478.053	14537.44
478.158	14537.44
478.263	14537.44
478.368	14537.44
478.473	14537.44
478.578	14537.44
478.682	14537.44
478.787	14537.44
478.892	14537.44
478.997	14537.44
479.102	14537.44
479.207	14537.44
479.312	14537.44
479.417	14537.44
479.521	14537.44
479.626	14537.44
479.731	14537.44
479.836	14537.44
479.941	14537.44
480.045	14537.44
480.15	14537.44
480.255	14537.44
480.36	14537.44
480.465	14537.44
480.569	14537.44
480.674	14537.44
480.779	14537.44
480.883	14537.44
480.988	14537.44
481.093	14537.44
481.197	14537.44
481.302	14537.44
481.407	14537.44
481.511	14537.44
481.616	14537.44
481.721	14537.44
481.825	14537.44
481.93	14537.44
482.035	14537.44
482.139	14537.44
482.244	14537.44
482.348	14537.44
482.453	14537.44
482.557	14537.44
482.662	14537.44
482.767	14537.44
482.871	14537.44
482.976	14537.44
483.08	14537.44
483.185	14537.44
483.289	14537.44
483.394	14537.44
483.498	14537.44
483.603	14537.44
483.707	14537.44
483.811	14537.44
483.916	14537.44
484.02	14537.44
484.125	14537.44
484.229	14537.44
484.333	14537.44
484.438	14537.44
484.542	14537.44
484.647	14537.44
484.751	14537.44
484.855	14537.44
484.96	14537.44
485.064	14537.44
485.168	14537.44
485.273	14537.44
485.377	14537.44
485.481	14537.44
485.585	14537.44
485.69	14537.44
485.794	14537.44
485.898	14537.44
486.002	14537.44
486.107	14537.44
486.211	14537.44
486.315	14537.44
486.419	14537.44
486.524	14537.44
486.628	14537.44
486.732	14537.44
486.836	14537.44
486.94	14537.44
487.044	14537.44
487.148	14537.44
487.253	14537.44
487.357	14537.44
487.461	14537.44
487.565	14537.44
487.669	14537.44
487.773	14537.44
487.877	14537.44
487.981	14537.44
488.085	14537.44
488.189	14537.44
488.293	14537.44
488.397	14537.44
488.501	14537.44
488.605	14537.44
488.709	14537.44
488.813	14537.44
488.917	14537.44
489.021	14537.44
489.125	14537.44
489.229	14537.44
489.333	14537.44
489.437	14537.44
489.541	14537.44
489.645	14537.44
489.749	14537.44
489.853	14537.44
489.956	14537.44
490.06	14537.44
490.164	14537.44
490.268	14537.44
490.372	14537.44
490.476	14537.44
490.579	14537.44
490.683	14537.44
490.787	14537.44
490.891	14537.44
490.995	14537.44
491.098	14537.44
491.202	14537.44
491.306	14537.44
491.41	14537.44
491.513	14537.44
491.617	14537.44
491.721	14537.44
491.824	14537.44
491.928	14537.44
492.032	14537.44
492.136	14537.44
492.239	14537.44
492.343	14537.44
492.446	14537.44
492.55	14537.44
492.654	14537.44
492.757	14537.44
492.861	14537.44
492.965	14537.44
493.068	14537.44
493.172	14537.44
493.275	14537.44
493.379	14537.44
493.482	14537.44
493.586	14537.44
493.689	14537.44
493.793	14537.44
493.896	14537.44
494	14537.44
494.103	14537.44
494.207	14537.44
494.31	14537.44
494.414	14537.44
494.517	14537.44
494.621	14537.44
494.724	14537.44
494.828	14537.44
494.931	14537.44
495.034	14537.44
495.138	14537.44
495.241	14537.44
495.345	14537.44
495.448	14537.44
495.551	14537.44
495.655	14537.44
495.758	14537.44
495.861	14537.44
495.965	14537.44
496.068	14537.44
496.171	14537.44
496.274	14537.44
496.378	14537.44
496.481	14537.44
496.584	14537.44
496.687	14537.44
496.791	14537.44
496.894	14537.44
496.997	14537.44
497.1	14537.44
497.204	14537.44
497.307	14537.44
497.41	14537.44
497.513	14537.44
497.616	14537.44
497.719	14537.44
497.823	14537.44
497.926	14537.44
498.029	14537.44
498.132	14537.44
498.235	14537.44
498.338	14537.44
498.441	14537.44
498.544	14537.44
498.647	14537.44
498.75	14537.44
498.853	14537.44
498.956	14537.44
499.059	14537.44
499.163	14537.44
499.266	14537.44
499.369	14537.44
499.471	14537.44
499.574	14537.44
499.677	14537.44
499.78	14537.44
499.883	14537.44
499.986	14537.44
500.089	14537.44
500.192	14537.44
500.295	14537.44
500.398	14537.44
500.501	14537.44
500.604	14537.44
500.707	14537.44
500.809	14537.44
500.912	14537.44
501.015	14537.44
501.118	14537.44
501.221	14537.44
501.324	14537.44
501.426	14537.44
501.529	14537.44
501.632	14537.44
501.735	14537.44
501.837	14537.44
501.94	14537.44
502.043	14537.44
502.146	14537.44
502.248	14537.44
502.351	14537.44
502.454	14537.44
502.557	14537.44
502.659	14537.44
502.762	14537.44
502.865	14537.44
502.967	14537.44
503.07	14537.44
503.173	14537.44
503.275	14537.44
503.378	14537.44
503.48	14537.44
503.583	14537.44
503.686	14537.44
503.788	14537.44
503.891	14537.44
503.993	14537.44
504.096	14537.44
504.198	14537.44
504.301	14537.44
504.403	14537.44
504.506	14537.44
504.608	14537.44
504.711	14537.44
504.813	14537.44
504.916	14537.44
505.018	14537.44
505.121	14537.44
505.223	14537.44
505.326	14537.44
505.428	14537.44
505.531	14537.44
505.633	14537.44
505.735	14537.44
505.838	14537.44
505.94	14537.44
506.042	14383.44
506.145	14364.44
506.247	14244.44
506.35	14098.44
506.452	13943.44
506.554	14129.44
506.656	13759.44
506.759	13908.44
506.861	13858.44
506.963	13611.44
507.066	13775.44
507.168	13777.44
507.27	13477.44
507.372	13586.44
507.475	13513.44
507.577	13340.44
507.679	13282.44
507.781	12981.44
507.883	13264.44
507.986	13233.44
508.088	13195.44
508.19	13236.44
508.292	12787.44
508.394	12926.44
508.496	12980.44
508.598	12738.44
508.701	12957.44
508.803	12862.44
508.905	12642.44
509.007	12732.44
509.109	12742.44
509.211	12794.44
509.313	12664.44
509.415	12723.44
509.517	12616.44
509.619	12411.44
509.721	12491.44
509.823	12533.44
509.925	12678.44
510.027	12479.44
510.129	12479.44
510.231	12498.44
510.333	12271.44
510.435	12455.44
510.537	12442.44
510.639	12473.44
510.741	12438.44
510.843	12519.44
510.945	12382.44
511.047	12395.44
511.148	12535.44
511.25	12387.44
511.352	12413.44
511.454	12322.44
511.556	12503.44
511.658	12509.44
511.76	12508.44
511.861	12799.44
511.963	12261.44
512.065	12398.44
512.167	12336.44
512.268	12646.44
512.37	12536.44
512.472	12637.44
512.574	12535.44
512.676	12652.44
512.777	12510.44
512.879	12562.44
512.981	12477.44
513.082	12510.44
513.184	12525.44
513.286	13042.44
513.387	12707.44
513.489	12779.44
513.591	12768.44
513.692	12743.44
513.794	12932.44
513.896	12658.44
513.997	12667.44
514.099	12830.44
514.2	13021.44
514.302	13015.44
514.404	13010.44
514.505	13039.44
514.607	13215.44
514.708	13009.44
514.81	13311.44
514.911	13282.44
515.013	13552.44
515.114	13482.44
515.216	13373.44
515.317	13712.44
515.419	13740.44
515.52	13984.44
515.622	13921.44
515.723	13911.44
515.825	14385.44
515.926	14186.44
516.027	14251.44
516.129	14537.44
516.23	14537.44
516.332	14537.44
516.433	14537.44
516.534	14537.44
516.636	14537.44
516.737	14537.44
516.838	14537.44
516.94	14537.44
517.041	14537.44
517.142	14537.44
517.244	14537.44
517.345	14537.44
517.446	14537.44
517.547	14537.44
517.649	14537.44
517.75	14537.44
517.851	14537.44
517.952	14537.44
518.054	14537.44
518.155	14537.44
518.256	14537.44
518.357	14537.44
518.458	14537.44
518.56	14537.44
518.661	14537.44
518.762	14537.44
518.863	14537.44
518.964	14537.44
519.065	14537.44
519.166	14537.44
519.268	14537.44
519.369	14537.44
519.47	14537.44
519.571	14537.44
519.672	14537.44
519.773	14537.44
519.874	14537.44
519.975	14537.44
520.076	14537.44
520.177	14537.44
520.278	14537.44
520.379	14422.44
520.48	14247.44
520.581	14190.44
520.682	14247.44
520.783	14340.44
520.884	14265.44
520.985	14229.44
521.086	14260.44
521.187	14060.44
521.288	14012.44
521.389	14294.44
521.489	13933.44
521.59	13943.44
521.691	14115.44
521.792	14191.44
521.893	14124.44
521.994	14061.44
522.095	13945.44
522.195	13949.44
522.296	14122.44
522.397	13988.44
522.498	13807.44
522.599	13932.44
522.699	13905.44
522.8	13855.44
522.901	13912.44
523.002	13978.44
523.102	14148.44
523.203	13765.44
523.304	14190.44
523.405	14031.44
523.505	13945.44
523.606	14043.44
523.707	13993.44
523.807	13875.44
523.908	13880.44
524.009	14059.44
524.109	13809.44
524.21	13909.44
524.31	14046.44
524.411	14186.44
524.512	13995.44
524.612	14051.44
524.713	14076.44
524.813	13878.44
524.914	14181.44
525.014	14537.44
525.115	14306.44
525.216	13918.44
525.316	14023.44
525.417	13904.44
525.517	13923.44
525.618	14014.44
525.718	13856.44
525.819	13755.44
525.919	14016.44
526.019	13904.44
526.12	13924.44
526.22	14013.44
526.321	13925.44
526.421	13987.44
526.522	13919.44
526.622	13794.44
526.722	13822.44
526.823	13857.44
526.923	13893.44
527.023	13776.44
527.124	13965.44
527.224	14078.44
527.324	13798.44
527.425	13728.44
527.525	13691.44
527.625	13762.44
527.726	13843.44
527.826	13803.44
527.926	13798.44
528.026	13827.44
528.127	13939.44
528.227	13807.44
528.327	13764.44
528.427	13808.44
528.528	13837.44
528.628	13764.44
528.728	13629.44
528.828	13760.44
528.928	13847.44
529.029	13757.44
529.129	13755.44
529.229	13688.44
529.329	13511.44
529.429	13629.44
529.529	13701.44
529.629	13686.44
529.729	13634.44
529.829	13816.44
529.93	13499.44
530.03	13624.44
530.13	13553.44
530.23	13536.44
530.33	13363.44
530.43	13446.44
530.53	13508.44
530.63	13347.44
530.73	13264.44
530.83	13281.44
530.93	13282.44
531.03	13358.44
531.13	13532.44
531.23	13253.44
531.33	13351.44
531.429	13436.44
531.529	13133.44
