Data from 7g_HRC06701__24__146.txt Node

Date: Thu Apr 18 01:50:13 CDT 2024
User: Estudiantes 2
Spectrometer: HR+C0670
Trigger mode: 4
Integration Time (sec): 1.000000E0
Scans to average: 1
Electric dark correction enabled: true
Nonlinearity correction enabled: false
Boxcar width: 0
XAxis mode: Wavelengths
Number of Pixels in Spectrum: 2048
>>>>>Begin Spectral Data<<<<<
407.81	-140.31
407.921	-140.31
408.032	-140.31
408.143	-150.31
408.254	-113.31
408.365	24.69
408.476	211.69
408.587	-0.31
408.699	-27.31
408.81	-19.31
408.921	-29.31
409.032	-55.31
409.143	70.69
409.254	39.69
409.365	103.69
409.476	-14.31
409.587	-4.31
409.698	103.69
409.809	71.69
409.92	-57.31
410.031	28.69
410.142	55.69
410.253	-19.31
410.364	39.69
410.475	185.69
410.585	1251.69
410.696	1410.69
410.807	1312.69
410.918	1269.69
411.029	1348.69
411.14	1358.69
411.251	1281.69
411.362	1366.69
411.472	1381.69
411.583	1376.69
411.694	1438.69
411.805	1381.69
411.916	1386.69
412.026	1405.69
412.137	1426.69
412.248	1372.69
412.359	1327.69
412.47	1267.69
412.58	1292.69
412.691	1350.69
412.802	1328.69
412.912	1381.69
413.023	1343.69
413.134	1287.69
413.245	1432.69
413.355	1328.69
413.466	1283.69
413.577	1359.69
413.687	1414.69
413.798	1254.69
413.909	1348.69
414.019	1400.69
414.13	1334.69
414.24	1266.69
414.351	1408.69
414.462	1534.69
414.572	1428.69
414.683	1411.69
414.793	1328.69
414.904	1675.69
415.014	1381.69
415.125	1303.69
415.235	1361.69
415.346	1527.69
415.456	1537.69
415.567	1356.69
415.677	1352.69
415.788	1398.69
415.898	1356.69
416.009	1303.69
416.119	1399.69
416.23	1272.69
416.34	1306.69
416.45	1416.69
416.561	1904.69
416.671	1422.69
416.782	1281.69
416.892	1369.69
417.002	1360.69
417.113	1413.69
417.223	1429.69
417.333	1332.69
417.444	1342.69
417.554	1503.69
417.664	1442.69
417.775	1329.69
417.885	1468.69
417.995	1469.69
418.106	1545.69
418.216	1474.69
418.326	1608.69
418.436	1529.69
418.547	1467.69
418.657	1513.69
418.767	1598.69
418.877	1555.69
418.987	1575.69
419.098	1576.69
419.208	1596.69
419.318	1674.69
419.428	1578.69
419.538	1516.69
419.648	1595.69
419.759	1636.69
419.869	1572.69
419.979	1535.69
420.089	1607.69
420.199	1498.69
420.309	1600.69
420.419	1643.69
420.529	1582.69
420.639	1889.69
420.749	1673.69
420.859	1698.69
420.969	1595.69
421.079	1791.69
421.189	1716.69
421.299	1671.69
421.409	1549.69
421.519	1691.69
421.629	1679.69
421.739	1632.69
421.849	1642.69
421.959	1586.69
422.069	1674.69
422.179	1724.69
422.289	1660.69
422.399	1659.69
422.509	1790.69
422.619	4830.69
422.729	1994.69
422.838	1688.69
422.948	1824.69
423.058	1750.69
423.168	1763.69
423.278	1863.69
423.388	1829.69
423.498	1873.69
423.607	1863.69
423.717	2079.69
423.827	2043.69
423.937	1953.69
424.046	2009.69
424.156	2025.69
424.266	1896.69
424.376	2114.69
424.485	2042.69
424.595	1967.69
424.705	1962.69
424.815	1947.69
424.924	2318.69
425.034	2066.69
425.144	1936.69
425.253	1934.69
425.363	2058.69
425.473	2119.69
425.582	1901.69
425.692	1963.69
425.801	2002.69
425.911	2135.69
426.021	2030.69
426.13	2216.69
426.24	2191.69
426.349	2204.69
426.459	2180.69
426.568	2071.69
426.678	2156.69
426.787	2125.69
426.897	2087.69
427.006	2139.69
427.116	2210.69
427.225	2152.69
427.335	2210.69
427.444	2187.69
427.554	2256.69
427.663	2236.69
427.773	2184.69
427.882	2282.69
427.992	2201.69
428.101	2234.69
428.21	2212.69
428.32	2250.69
428.429	2133.69
428.539	2477.69
428.648	2296.69
428.757	2280.69
428.867	2237.69
428.976	2468.69
429.085	2353.69
429.195	2273.69
429.304	2339.69
429.413	2390.69
429.523	2469.69
429.632	2480.69
429.741	2327.69
429.85	2336.69
429.96	2464.69
430.069	2395.69
430.178	2388.69
430.287	2664.69
430.397	2477.69
430.506	2438.69
430.615	2455.69
430.724	2536.69
430.833	2466.69
430.943	2447.69
431.052	2490.69
431.161	2507.69
431.27	2512.69
431.379	2519.69
431.488	2827.69
431.597	2661.69
431.706	2757.69
431.816	2725.69
431.925	2634.69
432.034	2569.69
432.143	2723.69
432.252	2594.69
432.361	2710.69
432.47	2672.69
432.579	2636.69
432.688	2615.69
432.797	2648.69
432.906	2629.69
433.015	2640.69
433.124	3009.69
433.233	2754.69
433.342	2625.69
433.451	2746.69
433.56	2721.69
433.669	2609.69
433.778	2590.69
433.886	2744.69
433.995	2696.69
434.104	2895.69
434.213	2801.69
434.322	2745.69
434.431	2901.69
434.54	2930.69
434.649	3095.69
434.757	2943.69
434.866	2881.69
434.975	3010.69
435.084	2953.69
435.193	2864.69
435.301	3091.69
435.41	3067.69
435.519	3116.69
435.628	2605.69
435.737	2604.69
435.845	2500.69
435.954	2514.69
436.063	2578.69
436.171	2529.69
436.28	2543.69
436.389	2667.69
436.498	2532.69
436.606	2527.69
436.715	2724.69
436.823	2419.69
436.932	2388.69
437.041	2419.69
437.149	2492.69
437.258	2303.69
437.367	2301.69
437.475	2370.69
437.584	2571.69
437.692	2397.69
437.801	3851.69
437.91	2408.69
438.018	2265.69
438.127	2303.69
438.235	2423.69
438.344	2301.69
438.452	2354.69
438.561	2245.69
438.669	2342.69
438.778	2256.69
438.886	2317.69
438.995	2213.69
439.103	2281.69
439.212	2339.69
439.32	2326.69
439.428	2302.69
439.537	2337.69
439.645	2363.69
439.754	2341.69
439.862	2311.69
439.97	2322.69
440.079	2339.69
440.187	2248.69
440.295	2415.69
440.404	2326.69
440.512	2340.69
440.62	2509.69
440.729	2460.69
440.837	2407.69
440.945	3130.69
441.054	2553.69
441.162	2507.69
441.27	2661.69
441.378	2601.69
441.487	2584.69
441.595	2928.69
441.703	2733.69
441.811	2548.69
441.92	2554.69
442.028	2512.69
442.136	2493.69
442.244	2540.69
442.352	2571.69
442.461	2360.69
442.569	2391.69
442.677	2444.69
442.785	2521.69
442.893	2451.69
443.001	2462.69
443.109	2465.69
443.217	2367.69
443.325	2461.69
443.434	3007.69
443.542	2757.69
443.65	2482.69
443.758	2678.69
443.866	2540.69
443.974	2855.69
444.082	2704.69
444.19	2772.69
444.298	2809.69
444.406	2920.69
444.514	2926.69
444.622	2974.69
444.73	2870.69
444.838	2880.69
444.946	2832.69
445.054	2771.69
445.161	2742.69
445.269	2609.69
445.377	2687.69
445.485	2697.69
445.593	2609.69
445.701	2746.69
445.809	2673.69
445.917	2559.69
446.025	2494.69
446.132	2647.69
446.24	2652.69
446.348	2564.69
446.456	2516.69
446.564	2563.69
446.671	2528.69
446.779	2504.69
446.887	2468.69
446.995	2488.69
447.102	2553.69
447.21	2504.69
447.318	2501.69
447.426	2444.69
447.533	2679.69
447.641	3662.69
447.749	2591.69
447.856	2466.69
447.964	2539.69
448.072	2635.69
448.179	2465.69
448.287	2575.69
448.395	2529.69
448.502	2398.69
448.61	2571.69
448.718	2525.69
448.825	2603.69
448.933	2547.69
449.04	2561.69
449.148	2642.69
449.256	2523.69
449.363	2586.69
449.471	2594.69
449.578	2620.69
449.686	2611.69
449.793	2764.69
449.901	2719.69
450.008	2759.69
450.116	2787.69
450.223	2727.69
450.331	2801.69
450.438	2868.69
450.546	2819.69
450.653	2937.69
450.76	3061.69
450.868	2998.69
450.975	3111.69
451.083	3000.69
451.19	3010.69
451.297	2966.69
451.405	3022.69
451.512	2993.69
451.619	3097.69
451.727	3128.69
451.834	2958.69
451.941	2979.69
452.049	2988.69
452.156	3096.69
452.263	3114.69
452.371	3052.69
452.478	3102.69
452.585	3184.69
452.692	3013.69
452.8	3131.69
452.907	3213.69
453.014	3123.69
453.121	3123.69
453.229	3178.69
453.336	3154.69
453.443	3255.69
453.55	3180.69
453.657	3197.69
453.765	3267.69
453.872	3201.69
453.979	3260.69
454.086	3202.69
454.193	3300.69
454.3	3221.69
454.407	3314.69
454.514	3386.69
454.621	3201.69
454.729	3208.69
454.836	3172.69
454.943	3322.69
455.05	3295.69
455.157	3450.69
455.264	3296.69
455.371	3288.69
455.478	3268.69
455.585	4580.69
455.692	3514.69
455.799	3520.69
455.906	3283.69
456.013	3341.69
456.12	3370.69
456.227	3365.69
456.334	3424.69
456.44	3479.69
456.547	3497.69
456.654	3476.69
456.761	3499.69
456.868	3591.69
456.975	3585.69
457.082	3479.69
457.189	3394.69
457.296	3508.69
457.402	3544.69
457.509	3468.69
457.616	3602.69
457.723	3818.69
457.83	3655.69
457.936	3602.69
458.043	3977.69
458.15	3668.69
458.257	3804.69
458.363	3876.69
458.47	3884.69
458.577	3901.69
458.684	3868.69
458.79	4047.69
458.897	4154.69
459.004	4218.69
459.11	4180.69
459.217	4244.69
459.324	4284.69
459.43	4501.69
459.537	4526.69
459.644	4349.69
459.75	4381.69
459.857	4737.69
459.964	4468.69
460.07	4596.69
460.177	4622.69
460.283	4735.69
460.39	4844.69
460.496	4717.69
460.603	4723.69
460.71	4664.69
460.816	4586.69
460.923	4583.69
461.029	4685.69
461.136	4720.69
461.242	4615.69
461.349	4607.69
461.455	4702.69
461.562	5002.69
461.668	4747.69
461.774	4600.69
461.881	4742.69
461.987	4783.69
462.094	4862.69
462.2	4998.69
462.307	4954.69
462.413	5006.69
462.519	5131.69
462.626	5504.69
462.732	5391.69
462.838	5682.69
462.945	5839.69
463.051	5726.69
463.157	5716.69
463.264	5668.69
463.37	5527.69
463.476	5319.69
463.583	5240.69
463.689	5166.69
463.795	5226.69
463.901	5330.69
464.008	5315.69
464.114	5156.69
464.22	5145.69
464.326	5178.69
464.433	4948.69
464.539	4983.69
464.645	4751.69
464.751	4938.69
464.857	4754.69
464.963	4432.69
465.07	4447.69
465.176	4210.69
465.282	4245.69
465.388	4091.69
465.494	3880.69
465.6	3958.69
465.706	3767.69
465.812	3604.69
465.918	3713.69
466.024	3652.69
466.131	3640.69
466.237	3530.69
466.343	3533.69
466.449	3416.69
466.555	3323.69
466.661	3337.69
466.767	3314.69
466.873	3319.69
466.979	3448.69
467.085	3304.69
467.191	3266.69
467.296	3221.69
467.402	3186.69
467.508	3227.69
467.614	3348.69
467.72	3212.69
467.826	3121.69
467.932	3210.69
468.038	3056.69
468.144	3025.69
468.25	3004.69
468.355	2971.69
468.461	2959.69
468.567	2989.69
468.673	3091.69
468.779	3031.69
468.885	2878.69
468.99	2853.69
469.096	3028.69
469.202	3014.69
469.308	2924.69
469.413	3149.69
469.519	2990.69
469.625	2988.69
469.731	3134.69
469.836	3044.69
469.942	3200.69
470.048	3066.69
470.153	3070.69
470.259	3085.69
470.365	3107.69
470.47	3164.69
470.576	3035.69
470.682	2981.69
470.787	2980.69
470.893	2820.69
470.999	2938.69
471.104	2918.69
471.21	2783.69
471.315	2701.69
471.421	2726.69
471.527	3023.69
471.632	2849.69
471.738	2799.69
471.843	2652.69
471.949	2615.69
472.054	2698.69
472.16	2680.69
472.265	2565.69
472.371	2569.69
472.476	2627.69
472.582	2583.69
472.687	2524.69
472.793	2562.69
472.898	2564.69
473.003	2511.69
473.109	2498.69
473.214	2427.69
473.32	2480.69
473.425	2513.69
473.53	2529.69
473.636	2444.69
473.741	2434.69
473.847	2445.69
473.952	2507.69
474.057	2444.69
474.163	2546.69
474.268	2481.69
474.373	2509.69
474.478	2415.69
474.584	2460.69
474.689	2443.69
474.794	2467.69
474.9	2740.69
475.005	2436.69
475.11	2641.69
475.215	2492.69
475.321	2404.69
475.426	2638.69
475.531	2595.69
475.636	2427.69
475.741	2357.69
475.846	2603.69
475.952	2745.69
476.057	2502.69
476.162	2604.69
476.267	2644.69
476.372	2770.69
476.477	2472.69
476.582	2679.69
476.687	2518.69
476.793	2587.69
476.898	2593.69
477.003	2625.69
477.108	2526.69
477.213	2523.69
477.318	2595.69
477.423	2671.69
477.528	2650.69
477.633	2751.69
477.738	2779.69
477.843	2692.69
477.948	2786.69
478.053	2725.69
478.158	2734.69
478.263	2852.69
478.368	2775.69
478.473	2869.69
478.578	2958.69
478.682	2783.69
478.787	2928.69
478.892	2843.69
478.997	2994.69
479.102	2939.69
479.207	2903.69
479.312	2976.69
479.417	2925.69
479.521	2890.69
479.626	3001.69
479.731	2901.69
479.836	2942.69
479.941	3166.69
480.045	3128.69
480.15	3103.69
480.255	3108.69
480.36	3115.69
480.465	3104.69
480.569	3260.69
480.674	3040.69
480.779	2943.69
480.883	2993.69
480.988	3091.69
481.093	2936.69
481.197	2994.69
481.302	3042.69
481.407	2972.69
481.511	4030.69
481.616	3057.69
481.721	3031.69
481.825	3114.69
481.93	2988.69
482.035	3035.69
482.139	3012.69
482.244	2983.69
482.348	2990.69
482.453	3003.69
482.557	3044.69
482.662	2980.69
482.767	3026.69
482.871	3018.69
482.976	3001.69
483.08	3082.69
483.185	3177.69
483.289	3035.69
483.394	3145.69
483.498	3127.69
483.603	3051.69
483.707	3196.69
483.811	3253.69
483.916	3256.69
484.02	3222.69
484.125	3259.69
484.229	3226.69
484.333	3351.69
484.438	3255.69
484.542	3250.69
484.647	3280.69
484.751	3420.69
484.855	3340.69
484.96	3355.69
485.064	3477.69
485.168	3470.69
485.273	3474.69
485.377	3474.69
485.481	3672.69
485.585	3521.69
485.69	3568.69
485.794	3695.69
485.898	3644.69
486.002	3632.69
486.107	3659.69
486.211	3676.69
486.315	3680.69
486.419	3798.69
486.524	3656.69
486.628	3649.69
486.732	3665.69
486.836	3632.69
486.94	3774.69
487.044	3624.69
487.148	3617.69
487.253	3522.69
487.357	3638.69
487.461	3772.69
487.565	3616.69
487.669	3574.69
487.773	3678.69
487.877	3662.69
487.981	3616.69
488.085	3717.69
488.189	3627.69
488.293	3754.69
488.397	4084.69
488.501	3656.69
488.605	3578.69
488.709	3702.69
488.813	3733.69
488.917	3628.69
489.021	3672.69
489.125	3998.69
489.229	3658.69
489.333	3831.69
489.437	3838.69
489.541	3701.69
489.645	3617.69
489.749	3711.69
489.853	3780.69
489.956	3629.69
490.06	3780.69
490.164	3797.69
490.268	3709.69
490.372	3735.69
490.476	3729.69
490.579	3766.69
490.683	4313.69
490.787	3919.69
490.891	3682.69
490.995	3740.69
491.098	3684.69
491.202	3719.69
491.306	3717.69
491.41	3710.69
491.513	3731.69
491.617	3759.69
491.721	3958.69
491.824	3906.69
491.928	3734.69
492.032	4073.69
492.136	3835.69
492.239	3722.69
492.343	3798.69
492.446	4178.69
492.55	3920.69
492.654	3782.69
492.757	3645.69
492.861	3811.69
492.965	3836.69
493.068	3906.69
493.172	3806.69
493.275	3624.69
493.379	3760.69
493.482	3940.69
493.586	3915.69
493.689	3994.69
493.793	3901.69
493.896	3997.69
494	3900.69
494.103	3913.69
494.207	4132.69
494.31	4127.69
494.414	3825.69
494.517	3878.69
494.621	3705.69
494.724	3803.69
494.828	3748.69
494.931	3718.69
495.034	3663.69
495.138	3918.69
495.241	3740.69
495.345	4466.69
495.448	3954.69
495.551	3696.69
495.655	3795.69
495.758	3660.69
495.861	3770.69
495.965	3743.69
496.068	3691.69
496.171	3824.69
496.274	3743.69
496.378	3742.69
496.481	3802.69
496.584	3796.69
496.687	3803.69
496.791	3804.69
496.894	3946.69
496.997	3848.69
497.1	3865.69
497.204	3906.69
497.307	3841.69
497.41	4071.69
497.513	4220.69
497.616	3985.69
497.719	4054.69
497.823	4037.69
497.926	4130.69
498.029	4208.69
498.132	4218.69
498.235	4331.69
498.338	4422.69
498.441	4509.69
498.544	4605.69
498.647	4659.69
498.75	4993.69
498.853	5168.69
498.956	5068.69
499.059	5486.69
499.163	5607.69
499.266	5660.69
499.369	5897.69
499.471	6016.69
499.574	6385.69
499.677	6546.69
499.78	7019.69
499.883	7259.69
499.986	7712.69
500.089	7948.69
500.192	8272.69
500.295	8292.69
500.398	8142.69
500.501	8010.69
500.604	7802.69
500.707	7468.69
500.809	7176.69
500.912	6958.69
501.015	6575.69
501.118	6224.69
501.221	6007.69
501.324	5681.69
501.426	5465.69
501.529	5183.69
501.632	5012.69
501.735	4805.69
501.837	4771.69
501.94	4492.69
502.043	4408.69
502.146	4343.69
502.248	4246.69
502.351	4099.69
502.454	4103.69
502.557	4012.69
502.659	3916.69
502.762	3711.69
502.865	3752.69
502.967	3639.69
503.07	3574.69
503.173	3610.69
503.275	3514.69
503.378	3416.69
503.48	3446.69
503.583	3470.69
503.686	3394.69
503.788	3706.69
503.891	3403.69
503.993	3611.69
504.096	3354.69
504.198	3545.69
504.301	3403.69
504.403	3467.69
504.506	3417.69
504.608	3242.69
504.711	3280.69
504.813	3367.69
504.916	3218.69
505.018	3042.69
505.121	3011.69
505.223	3063.69
505.326	2911.69
505.428	3007.69
505.531	2952.69
505.633	2898.69
505.735	2760.69
505.838	2818.69
505.94	2711.69
506.042	2720.69
506.145	2705.69
506.247	2817.69
506.35	2636.69
506.452	2748.69
506.554	2808.69
506.656	2665.69
506.759	2646.69
506.861	2737.69
506.963	2617.69
507.066	2666.69
507.168	2845.69
507.27	2614.69
507.372	2580.69
507.475	2590.69
507.577	2653.69
507.679	2551.69
507.781	2474.69
507.883	2568.69
507.986	2488.69
508.088	2517.69
508.19	2653.69
508.292	2576.69
508.394	2552.69
508.496	2520.69
508.598	2431.69
508.701	2484.69
508.803	2514.69
508.905	2385.69
509.007	2531.69
509.109	2523.69
509.211	2491.69
509.313	2430.69
509.415	2396.69
509.517	2529.69
509.619	2424.69
509.721	2486.69
509.823	2470.69
509.925	2567.69
510.027	2423.69
510.129	2511.69
510.231	2482.69
510.333	2387.69
510.435	2447.69
510.537	2508.69
510.639	2515.69
510.741	2397.69
510.843	2549.69
510.945	2431.69
511.047	2413.69
511.148	2556.69
511.25	2425.69
511.352	2400.69
511.454	2345.69
511.556	2477.69
511.658	2363.69
511.76	2556.69
511.861	2601.69
511.963	2465.69
512.065	2421.69
512.167	2410.69
512.268	2563.69
512.37	2500.69
512.472	2519.69
512.574	2574.69
512.676	2511.69
512.777	2448.69
512.879	2407.69
512.981	2415.69
513.082	2523.69
513.184	2463.69
513.286	2855.69
513.387	2531.69
513.489	2669.69
513.591	2513.69
513.692	2575.69
513.794	2637.69
513.896	2383.69
513.997	2422.69
514.099	2454.69
514.2	2534.69
514.302	2515.69
514.404	2583.69
514.505	2461.69
514.607	2588.69
514.708	2564.69
514.81	2596.69
514.911	2610.69
515.013	2681.69
515.114	2709.69
515.216	2590.69
515.317	2648.69
515.419	2687.69
515.52	2704.69
515.622	2658.69
515.723	2753.69
515.825	2883.69
515.926	2782.69
516.027	2780.69
516.129	2778.69
516.23	2862.69
516.332	2923.69
516.433	3030.69
516.534	3028.69
516.636	3022.69
516.737	3145.69
516.838	4028.69
516.94	3297.69
517.041	3362.69
517.142	3450.69
517.244	3472.69
517.345	3483.69
517.446	3476.69
517.547	3533.69
517.649	3511.69
517.75	3602.69
517.851	3464.69
517.952	3787.69
518.054	3568.69
518.155	3506.69
518.256	3320.69
518.357	3506.69
518.458	3251.69
518.56	3153.69
518.661	3195.69
518.762	3191.69
518.863	3172.69
518.964	3213.69
519.065	3092.69
519.166	3087.69
519.268	2988.69
519.369	3205.69
519.47	2917.69
519.571	3010.69
519.672	2902.69
519.773	2852.69
519.874	2919.69
519.975	3029.69
520.076	2828.69
520.177	2954.69
520.278	2971.69
520.379	2947.69
520.48	2794.69
520.581	2847.69
520.682	2836.69
520.783	2785.69
520.884	2909.69
520.985	2874.69
521.086	2797.69
521.187	2866.69
521.288	2836.69
521.389	2829.69
521.489	2743.69
521.59	2747.69
521.691	2816.69
521.792	2768.69
521.893	2857.69
521.994	2958.69
522.095	2781.69
522.195	2865.69
522.296	2977.69
522.397	2859.69
522.498	2802.69
522.599	2758.69
522.699	2859.69
522.8	2775.69
522.901	2868.69
523.002	2851.69
523.102	3002.69
523.203	2874.69
523.304	3048.69
523.405	2770.69
523.505	2801.69
523.606	2889.69
523.707	2791.69
523.807	2813.69
523.908	2887.69
524.009	2939.69
524.109	2808.69
524.21	2834.69
524.31	2911.69
524.411	2933.69
524.512	2896.69
524.612	2916.69
524.713	3032.69
524.813	2881.69
524.914	3120.69
525.014	7994.69
525.115	3212.69
525.216	2788.69
525.316	2874.69
525.417	2914.69
525.517	2747.69
525.618	2845.69
525.718	2838.69
525.819	2818.69
525.919	2932.69
526.019	2806.69
526.12	2893.69
526.22	2799.69
526.321	2754.69
526.421	2720.69
526.522	2805.69
526.622	2719.69
526.722	2821.69
526.823	2855.69
526.923	2768.69
527.023	2853.69
527.124	2751.69
527.224	2907.69
527.324	2692.69
527.425	2868.69
527.525	2813.69
527.625	2738.69
527.726	2746.69
527.826	2892.69
527.926	2778.69
528.026	2790.69
528.127	2761.69
528.227	2754.69
528.327	2797.69
528.427	2787.69
528.528	2851.69
528.628	2847.69
528.728	2743.69
528.828	2932.69
528.928	2890.69
529.029	2775.69
529.129	2813.69
529.229	2843.69
529.329	2796.69
529.429	2881.69
529.529	2943.69
529.629	2790.69
529.729	2770.69
529.829	2930.69
529.93	2706.69
530.03	2721.69
530.13	2816.69
530.23	2772.69
530.33	2794.69
530.43	2788.69
530.53	2752.69
530.63	2703.69
530.73	2683.69
530.83	2693.69
530.93	2677.69
531.03	2683.69
531.13	2744.69
531.23	2663.69
531.33	2788.69
531.429	2828.69
531.529	2751.69
531.629	2711.69
531.729	2615.69
531.829	2594.69
531.929	2547.69
532.029	2651.69
532.129	2693.69
532.229	2656.69
532.328	2633.69
532.428	2719.69
532.528	2530.69
532.628	2569.69
532.728	2688.69
532.827	2537.69
532.927	2653.69
533.027	2620.69
533.127	2679.69
533.227	2621.69
533.326	2639.69
533.426	2546.69
533.526	2649.69
533.625	2699.69
533.725	2881.69
533.825	2607.69
533.924	2493.69
534.024	2464.69
534.124	2436.69
534.223	2531.69
534.323	2919.69
534.423	2510.69
534.522	2444.69
534.622	2450.69
534.722	2452.69
534.821	2426.69
534.921	2345.69
535.02	2392.69
535.12	2483.69
535.219	2513.69
535.319	2475.69
535.419	2429.69
535.518	2359.69
535.618	2455.69
535.717	2410.69
535.817	2231.69
535.916	2261.69
536.016	2351.69
536.115	2253.69
536.215	2283.69
536.314	2271.69
536.413	2206.69
536.513	2234.69
536.612	2357.69
536.712	2144.69
536.811	2190.69
536.91	2210.69
537.01	2155.69
537.109	2221.69
537.209	2232.69
537.308	2156.69
537.407	2152.69
537.507	2190.69
537.606	2210.69
537.705	2204.69
537.805	2133.69
537.904	2160.69
