Data from 7g_HRC06701__23__145.txt Node

Date: Thu Apr 18 01:50:12 CDT 2024
User: Estudiantes 2
Spectrometer: HR+C0670
Trigger mode: 4
Integration Time (sec): 1.000000E0
Scans to average: 1
Electric dark correction enabled: true
Nonlinearity correction enabled: false
Boxcar width: 0
XAxis mode: Wavelengths
Number of Pixels in Spectrum: 2048
>>>>>Begin Spectral Data<<<<<
407.81	-144.19
407.921	-144.19
408.032	-144.19
408.143	-82.19
408.254	-139.19
408.365	26.81
408.476	248.81
408.587	-15.19
408.699	-47.19
408.81	-2.19
408.921	-18.19
409.032	-23.19
409.143	29.81
409.254	53.81
409.365	55.81
409.476	-48.19
409.587	62.81
409.698	41.81
409.809	41.81
409.92	-25.19
410.031	-30.19
410.142	31.81
410.253	18.81
410.364	68.81
410.475	344.81
410.585	1777.81
410.696	1953.81
410.807	1843.81
410.918	1968.81
411.029	2010.81
411.14	1935.81
411.251	1904.81
411.362	2014.81
411.472	2015.81
411.583	1904.81
411.694	2036.81
411.805	1970.81
411.916	2006.81
412.026	1963.81
412.137	2007.81
412.248	1948.81
412.359	1978.81
412.47	1974.81
412.58	1912.81
412.691	1965.81
412.802	1944.81
412.912	1916.81
413.023	1942.81
413.134	1952.81
413.245	1972.81
413.355	1940.81
413.466	1885.81
413.577	1961.81
413.687	1970.81
413.798	1866.81
413.909	2008.81
414.019	1944.81
414.13	1943.81
414.24	1908.81
414.351	1987.81
414.462	2080.81
414.572	2019.81
414.683	2018.81
414.793	1969.81
414.904	2214.81
415.014	1968.81
415.125	1862.81
415.235	1910.81
415.346	2158.81
415.456	2063.81
415.567	1971.81
415.677	1997.81
415.788	2012.81
415.898	1924.81
416.009	1902.81
416.119	2022.81
416.23	1913.81
416.34	1913.81
416.45	1944.81
416.561	2600.81
416.671	2030.81
416.782	1926.81
416.892	1966.81
417.002	2016.81
417.113	2035.81
417.223	1959.81
417.333	1903.81
417.444	1973.81
417.554	1980.81
417.664	2051.81
417.775	1965.81
417.885	2094.81
417.995	2078.81
418.106	2188.81
418.216	2068.81
418.326	2118.81
418.436	2120.81
418.547	2149.81
418.657	2054.81
418.767	2152.81
418.877	2143.81
418.987	2140.81
419.098	2110.81
419.208	2224.81
419.318	2242.81
419.428	2270.81
419.538	2160.81
419.648	2336.81
419.759	2242.81
419.869	2233.81
419.979	2276.81
420.089	2211.81
420.199	2196.81
420.309	2298.81
420.419	2283.81
420.529	2204.81
420.639	2545.81
420.749	2321.81
420.859	2268.81
420.969	2289.81
421.079	2603.81
421.189	2300.81
421.299	2310.81
421.409	2307.81
421.519	2365.81
421.629	2433.81
421.739	2343.81
421.849	2290.81
421.959	2274.81
422.069	2406.81
422.179	2395.81
422.289	2326.81
422.399	2430.81
422.509	2594.81
422.619	5556.81
422.729	2694.81
422.838	2450.81
422.948	2449.81
423.058	2433.81
423.168	2535.81
423.278	2481.81
423.388	2545.81
423.498	2610.81
423.607	2599.81
423.717	2792.81
423.827	2811.81
423.937	2651.81
424.046	2645.81
424.156	2790.81
424.266	2664.81
424.376	2904.81
424.485	2902.81
424.595	2756.81
424.705	2699.81
424.815	2765.81
424.924	3205.81
425.034	2872.81
425.144	2750.81
425.253	2776.81
425.363	2940.81
425.473	2918.81
425.582	2751.81
425.692	2850.81
425.801	2795.81
425.911	3001.81
426.021	2996.81
426.13	3046.81
426.24	3145.81
426.349	3059.81
426.459	3066.81
426.568	2994.81
426.678	3132.81
426.787	3136.81
426.897	2967.81
427.006	3091.81
427.116	3176.81
427.225	3106.81
427.335	3243.81
427.444	3213.81
427.554	3194.81
427.663	3198.81
427.773	3238.81
427.882	3298.81
427.992	3215.81
428.101	3308.81
428.21	3317.81
428.32	3352.81
428.429	3275.81
428.539	3661.81
428.648	3316.81
428.757	3374.81
428.867	3394.81
428.976	3519.81
429.085	3579.81
429.195	3482.81
429.304	3406.81
429.413	3468.81
429.523	3562.81
429.632	3528.81
429.741	3440.81
429.85	3503.81
429.96	3667.81
430.069	3531.81
430.178	3536.81
430.287	3896.81
430.397	3609.81
430.506	3583.81
430.615	3591.81
430.724	3618.81
430.833	3675.81
430.943	3690.81
431.052	3746.81
431.161	3684.81
431.27	3695.81
431.379	3823.81
431.488	3891.81
431.597	3833.81
431.706	3960.81
431.816	3810.81
431.925	3930.81
432.034	3876.81
432.143	3939.81
432.252	3721.81
432.361	3981.81
432.47	3943.81
432.579	3896.81
432.688	3836.81
432.797	3945.81
432.906	3751.81
433.015	3953.81
433.124	4288.81
433.233	3934.81
433.342	3908.81
433.451	3943.81
433.56	3899.81
433.669	3989.81
433.778	3925.81
433.886	3998.81
433.995	3947.81
434.104	4141.81
434.213	4122.81
434.322	3984.81
434.431	4098.81
434.54	4261.81
434.649	4280.81
434.757	4241.81
434.866	4135.81
434.975	4112.81
435.084	4150.81
435.193	4154.81
435.301	4304.81
435.41	4323.81
435.519	4376.81
435.628	3857.81
435.737	3780.81
435.845	3843.81
435.954	3788.81
436.063	3745.81
436.171	3741.81
436.28	3752.81
436.389	3835.81
436.498	3672.81
436.606	3711.81
436.715	3893.81
436.823	3667.81
436.932	3614.81
437.041	3581.81
437.149	3533.81
437.258	3575.81
437.367	3548.81
437.475	3527.81
437.584	3761.81
437.692	3551.81
437.801	4996.81
437.91	3564.81
438.018	3493.81
438.127	3386.81
438.235	3427.81
438.344	3476.81
438.452	3493.81
438.561	3363.81
438.669	3369.81
438.778	3391.81
438.886	3395.81
438.995	3310.81
439.103	3425.81
439.212	3408.81
439.32	3373.81
439.428	3352.81
439.537	3409.81
439.645	3532.81
439.754	3486.81
439.862	3389.81
439.97	3374.81
440.079	3383.81
440.187	3295.81
440.295	3600.81
440.404	3393.81
440.512	3470.81
440.62	3461.81
440.729	3505.81
440.837	3564.81
440.945	4195.81
441.054	3622.81
441.162	3594.81
441.27	3691.81
441.378	3642.81
441.487	3704.81
441.595	4062.81
441.703	3796.81
441.811	3622.81
441.92	3640.81
442.028	3528.81
442.136	3615.81
442.244	3629.81
442.352	3636.81
442.461	3532.81
442.569	3522.81
442.677	3659.81
442.785	3591.81
442.893	3509.81
443.001	3532.81
443.109	3426.81
443.217	3477.81
443.325	3521.81
443.434	4108.81
443.542	3872.81
443.65	3731.81
443.758	3816.81
443.866	3742.81
443.974	3997.81
444.082	3830.81
444.19	3878.81
444.298	3864.81
444.406	3935.81
444.514	3949.81
444.622	3979.81
444.73	4113.81
444.838	3975.81
444.946	4054.81
445.054	3932.81
445.161	3849.81
445.269	3787.81
445.377	3875.81
445.485	3792.81
445.593	3711.81
445.701	3925.81
445.809	3832.81
445.917	3691.81
446.025	3706.81
446.132	3806.81
446.24	3774.81
446.348	3738.81
446.456	3700.81
446.564	3684.81
446.671	3749.81
446.779	3687.81
446.887	3667.81
446.995	3593.81
447.102	3787.81
447.21	3746.81
447.318	3608.81
447.426	3643.81
447.533	3942.81
447.641	4849.81
447.749	3781.81
447.856	3678.81
447.964	3652.81
448.072	3797.81
448.179	3653.81
448.287	3736.81
448.395	3790.81
448.502	3622.81
448.61	3757.81
448.718	3659.81
448.825	3734.81
448.933	3812.81
449.04	3692.81
449.148	3750.81
449.256	3845.81
449.363	3810.81
449.471	3858.81
449.578	3923.81
449.686	3795.81
449.793	3955.81
449.901	3867.81
450.008	4029.81
450.116	3982.81
450.223	4024.81
450.331	4186.81
450.438	4071.81
450.546	4090.81
450.653	4239.81
450.76	4190.81
450.868	4219.81
450.975	4464.81
451.083	4215.81
451.19	4309.81
451.297	4198.81
451.405	4375.81
451.512	4281.81
451.619	4469.81
451.727	4474.81
451.834	4340.81
451.941	4421.81
452.049	4428.81
452.156	4368.81
452.263	4471.81
452.371	4532.81
452.478	4534.81
452.585	4545.81
452.692	4377.81
452.8	4516.81
452.907	4679.81
453.014	4541.81
453.121	4608.81
453.229	4621.81
453.336	4651.81
453.443	4761.81
453.55	4605.81
453.657	4622.81
453.765	4768.81
453.872	4634.81
453.979	4699.81
454.086	4797.81
454.193	4799.81
454.3	4681.81
454.407	4896.81
454.514	4959.81
454.621	4728.81
454.729	4713.81
454.836	4829.81
454.943	4755.81
455.05	4942.81
455.157	5043.81
455.264	4870.81
455.371	4983.81
455.478	4911.81
455.585	6308.81
455.692	5053.81
455.799	5154.81
455.906	5076.81
456.013	4978.81
456.12	5168.81
456.227	5193.81
456.334	5112.81
456.44	5264.81
456.547	5205.81
456.654	5096.81
456.761	5152.81
456.868	5284.81
456.975	5350.81
457.082	5208.81
457.189	5204.81
457.296	5437.81
457.402	5350.81
457.509	5296.81
457.616	5552.81
457.723	5684.81
457.83	5398.81
457.936	5523.81
458.043	5862.81
458.15	5616.81
458.257	5861.81
458.363	5716.81
458.47	5800.81
458.577	5994.81
458.684	5875.81
458.79	6091.81
458.897	6061.81
459.004	6348.81
459.11	6137.81
459.217	6173.81
459.324	6317.81
459.43	6434.81
459.537	6522.81
459.644	6487.81
459.75	6589.81
459.857	6955.81
459.964	6633.81
460.07	6662.81
460.177	6750.81
460.283	6859.81
460.39	7088.81
460.496	6750.81
460.603	6890.81
460.71	6917.81
460.816	6823.81
460.923	6675.81
461.029	6841.81
461.136	6926.81
461.242	6731.81
461.349	6873.81
461.455	7018.81
461.562	7129.81
461.668	7041.81
461.774	7101.81
461.881	7015.81
461.987	7106.81
462.094	7237.81
462.2	7323.81
462.307	7345.81
462.413	7369.81
462.519	7426.81
462.626	7760.81
462.732	7636.81
462.838	7841.81
462.945	7980.81
463.051	8056.81
463.157	8054.81
463.264	7942.81
463.37	7830.81
463.476	7647.81
463.583	7409.81
463.689	7472.81
463.795	7468.81
463.901	7411.81
464.008	7536.81
464.114	7365.81
464.22	7393.81
464.326	7331.81
464.433	7232.81
464.539	7219.81
464.645	6945.81
464.751	7052.81
464.857	6804.81
464.963	6478.81
465.07	6533.81
465.176	6396.81
465.282	6307.81
465.388	6105.81
465.494	5858.81
465.6	5883.81
465.706	5679.81
465.812	5639.81
465.918	5675.81
466.024	5525.81
466.131	5467.81
466.237	5332.81
466.343	5307.81
466.449	5166.81
466.555	5243.81
466.661	5089.81
466.767	5010.81
466.873	4987.81
466.979	5147.81
467.085	4936.81
467.191	4973.81
467.296	5025.81
467.402	4778.81
467.508	4902.81
467.614	4993.81
467.72	4767.81
467.826	4747.81
467.932	4773.81
468.038	4668.81
468.144	4569.81
468.25	4651.81
468.355	4563.81
468.461	4604.81
468.567	4700.81
468.673	4629.81
468.779	4515.81
468.885	4558.81
468.99	4500.81
469.096	4492.81
469.202	4576.81
469.308	4623.81
469.413	4624.81
469.519	4546.81
469.625	4543.81
469.731	4609.81
469.836	4517.81
469.942	4718.81
470.048	4586.81
470.153	4596.81
470.259	4607.81
470.365	4676.81
470.47	4590.81
470.576	4484.81
470.682	4596.81
470.787	4470.81
470.893	4328.81
470.999	4448.81
471.104	4474.81
471.21	4319.81
471.315	4142.81
471.421	4280.81
471.527	4419.81
471.632	4313.81
471.738	4194.81
471.843	4019.81
471.949	4122.81
472.054	4169.81
472.16	4089.81
472.265	3967.81
472.371	4017.81
472.476	4031.81
472.582	3986.81
472.687	3934.81
472.793	3927.81
472.898	3917.81
473.003	3832.81
473.109	3903.81
473.214	3768.81
473.32	3822.81
473.425	3996.81
473.53	3874.81
473.636	3801.81
473.741	3856.81
473.847	3772.81
473.952	3799.81
474.057	3841.81
474.163	3892.81
474.268	3790.81
474.373	3876.81
474.478	3836.81
474.584	3816.81
474.689	3759.81
474.794	3812.81
474.9	4055.81
475.005	3794.81
475.11	4017.81
475.215	3824.81
475.321	3731.81
475.426	3991.81
475.531	3983.81
475.636	3771.81
475.741	3884.81
475.846	4095.81
475.952	4073.81
476.057	3877.81
476.162	3999.81
476.267	4015.81
476.372	4140.81
476.477	3964.81
476.582	4130.81
476.687	3912.81
476.793	4021.81
476.898	4110.81
477.003	3932.81
477.108	3973.81
477.213	3955.81
477.318	4019.81
477.423	4197.81
477.528	4273.81
477.633	4238.81
477.738	4192.81
477.843	4136.81
477.948	4244.81
478.053	4320.81
478.158	4381.81
478.263	4293.81
478.368	4348.81
478.473	4545.81
478.578	4432.81
478.682	4390.81
478.787	4575.81
478.892	4472.81
478.997	4438.81
479.102	4499.81
479.207	4447.81
479.312	4596.81
479.417	4545.81
479.521	4496.81
479.626	4698.81
479.731	4555.81
479.836	4615.81
479.941	4931.81
480.045	4735.81
480.15	4831.81
480.255	4794.81
480.36	4674.81
480.465	4816.81
480.569	4956.81
480.674	4718.81
480.779	4702.81
480.883	4706.81
480.988	4760.81
481.093	4705.81
481.197	4721.81
481.302	4864.81
481.407	4734.81
481.511	5803.81
481.616	4776.81
481.721	4662.81
481.825	4918.81
481.93	4703.81
482.035	4718.81
482.139	4783.81
482.244	4763.81
482.348	4747.81
482.453	4728.81
482.557	4858.81
482.662	4892.81
482.767	4786.81
482.871	4808.81
482.976	4898.81
483.08	4873.81
483.185	5068.81
483.289	4905.81
483.394	4923.81
483.498	5006.81
483.603	4971.81
483.707	5113.81
483.811	5069.81
483.916	5166.81
484.02	5149.81
484.125	5177.81
484.229	5191.81
484.333	5377.81
484.438	5178.81
484.542	5338.81
484.647	5337.81
484.751	5363.81
484.855	5404.81
484.96	5485.81
485.064	5592.81
485.168	5567.81
485.273	5502.81
485.377	5580.81
485.481	5752.81
485.585	5620.81
485.69	5710.81
485.794	5757.81
485.898	5711.81
486.002	5754.81
486.107	5774.81
486.211	5713.81
486.315	5694.81
486.419	5859.81
486.524	5868.81
486.628	5736.81
486.732	5799.81
486.836	5754.81
486.94	5908.81
487.044	5798.81
487.148	5751.81
487.253	5765.81
487.357	6006.81
487.461	5960.81
487.565	5797.81
487.669	5846.81
487.773	5771.81
487.877	5833.81
487.981	5915.81
488.085	5928.81
488.189	5850.81
488.293	6092.81
488.397	6344.81
488.501	5862.81
488.605	5835.81
488.709	5978.81
488.813	5871.81
488.917	5832.81
489.021	5910.81
489.125	6152.81
489.229	5927.81
489.333	6126.81
489.437	6054.81
489.541	6047.81
489.645	5862.81
489.749	6048.81
489.853	6007.81
489.956	6005.81
490.06	6048.81
490.164	6046.81
490.268	5990.81
490.372	6044.81
490.476	6072.81
490.579	6038.81
490.683	6703.81
490.787	6154.81
490.891	5994.81
490.995	6024.81
491.098	6031.81
491.202	6034.81
491.306	6180.81
491.41	6190.81
491.513	5960.81
491.617	6075.81
491.721	6258.81
491.824	6354.81
491.928	6102.81
492.032	6263.81
492.136	6064.81
492.239	6082.81
492.343	6074.81
492.446	6588.81
492.55	6220.81
492.654	5989.81
492.757	6140.81
492.861	6236.81
492.965	6159.81
493.068	6272.81
493.172	6080.81
493.275	6109.81
493.379	5992.81
493.482	6139.81
493.586	6212.81
493.689	6345.81
493.793	6148.81
493.896	6182.81
494	6202.81
494.103	6288.81
494.207	6424.81
494.31	6512.81
494.414	6252.81
494.517	6100.81
494.621	6140.81
494.724	6136.81
494.828	6231.81
494.931	6136.81
495.034	6158.81
495.138	6203.81
495.241	5908.81
495.345	6785.81
495.448	6288.81
495.551	5999.81
495.655	6085.81
495.758	6160.81
495.861	5993.81
495.965	6015.81
496.068	6078.81
496.171	6169.81
496.274	6084.81
496.378	6177.81
496.481	6199.81
496.584	6092.81
496.687	6172.81
496.791	6302.81
496.894	6196.81
496.997	6228.81
497.1	6307.81
497.204	6323.81
497.307	6229.81
497.41	6574.81
497.513	6724.81
497.616	6539.81
497.719	6618.81
497.823	6591.81
497.926	6562.81
498.029	6729.81
498.132	6850.81
498.235	7053.81
498.338	7096.81
498.441	7381.81
498.544	7284.81
498.647	7449.81
498.75	7669.81
498.853	7996.81
498.956	7874.81
499.059	8368.81
499.163	8420.81
499.266	8687.81
499.369	8883.81
499.471	9129.81
499.574	9438.81
499.677	9666.81
499.78	9964.81
499.883	10214.81
499.986	10722.81
500.089	10915.81
500.192	11023.81
500.295	10900.81
500.398	11046.81
500.501	10846.81
500.604	10682.81
500.707	10361.81
500.809	10221.81
500.912	10000.81
501.015	9651.81
501.118	9263.81
501.221	8914.81
501.324	8607.81
501.426	8346.81
501.529	7972.81
501.632	7811.81
501.735	7510.81
501.837	7250.81
501.94	7184.81
502.043	6931.81
502.146	6984.81
502.248	6704.81
502.351	6558.81
502.454	6582.81
502.557	6367.81
502.659	6207.81
502.762	6150.81
502.865	5916.81
502.967	5923.81
503.07	5788.81
503.173	5823.81
503.275	5757.81
503.378	5578.81
503.48	5698.81
503.583	5604.81
503.686	5522.81
503.788	5794.81
503.891	5575.81
503.993	5690.81
504.096	5500.81
504.198	5536.81
504.301	5422.81
504.403	5375.81
504.506	5417.81
504.608	5241.81
504.711	5294.81
504.813	5275.81
504.916	5175.81
505.018	4940.81
505.121	4887.81
505.223	4890.81
505.326	4801.81
505.428	4930.81
505.531	4720.81
505.633	4660.81
505.735	4620.81
505.838	4584.81
505.94	4644.81
506.042	4437.81
506.145	4519.81
506.247	4595.81
506.35	4365.81
506.452	4513.81
506.554	4423.81
506.656	4465.81
506.759	4359.81
506.861	4405.81
506.963	4231.81
507.066	4363.81
507.168	4438.81
507.27	4275.81
507.372	4139.81
507.475	4286.81
507.577	4163.81
507.679	4136.81
507.781	4156.81
507.883	4127.81
507.986	4137.81
508.088	4109.81
508.19	4132.81
508.292	4117.81
508.394	4103.81
508.496	3949.81
508.598	3995.81
508.701	4063.81
508.803	4109.81
508.905	4003.81
509.007	4053.81
509.109	4108.81
509.211	4032.81
509.313	4082.81
509.415	3987.81
509.517	4032.81
509.619	3969.81
509.721	4033.81
509.823	3918.81
509.925	4147.81
510.027	3947.81
510.129	3985.81
510.231	3997.81
510.333	3928.81
510.435	3997.81
510.537	4068.81
510.639	3970.81
510.741	3971.81
510.843	3957.81
510.945	3856.81
511.047	4015.81
511.148	3908.81
511.25	3878.81
511.352	3977.81
511.454	3835.81
511.556	4031.81
511.658	3945.81
511.76	4108.81
511.861	4134.81
511.963	3931.81
512.065	3989.81
512.167	3855.81
512.268	4111.81
512.37	3983.81
512.472	3977.81
512.574	3970.81
512.676	4068.81
512.777	4019.81
512.879	3964.81
512.981	3934.81
513.082	4054.81
513.184	3997.81
513.286	4513.81
513.387	4194.81
513.489	4157.81
513.591	4138.81
513.692	4229.81
513.794	4118.81
513.896	3993.81
513.997	4109.81
514.099	4086.81
514.2	4112.81
514.302	4125.81
514.404	4163.81
514.505	4179.81
514.607	4229.81
514.708	4310.81
514.81	4309.81
514.911	4271.81
515.013	4354.81
515.114	4210.81
515.216	4218.81
515.317	4349.81
515.419	4337.81
515.52	4355.81
515.622	4445.81
515.723	4469.81
515.825	4626.81
515.926	4563.81
516.027	4591.81
516.129	4559.81
516.23	4645.81
516.332	4704.81
516.433	4818.81
516.534	4856.81
516.636	4861.81
516.737	4924.81
516.838	5903.81
516.94	5207.81
517.041	5118.81
517.142	5324.81
517.244	5367.81
517.345	5366.81
517.446	5361.81
517.547	5482.81
517.649	5538.81
517.75	5428.81
517.851	5460.81
517.952	5723.81
518.054	5367.81
518.155	5442.81
518.256	5310.81
518.357	5283.81
518.458	5092.81
518.56	5031.81
518.661	5208.81
518.762	5039.81
518.863	5105.81
518.964	5048.81
519.065	4898.81
519.166	4898.81
519.268	4920.81
519.369	5111.81
519.47	4738.81
519.571	4868.81
519.672	4794.81
519.773	4659.81
519.874	4691.81
519.975	4829.81
520.076	4779.81
520.177	4797.81
520.278	4794.81
520.379	4653.81
520.48	4637.81
520.581	4651.81
520.682	4639.81
520.783	4596.81
520.884	4735.81
520.985	4800.81
521.086	4644.81
521.187	4711.81
521.288	4638.81
521.389	4602.81
521.489	4509.81
521.59	4500.81
521.691	4596.81
521.792	4579.81
521.893	4728.81
521.994	4699.81
522.095	4686.81
522.195	4639.81
522.296	4722.81
522.397	4567.81
522.498	4580.81
522.599	4526.81
522.699	4630.81
522.8	4550.81
522.901	4788.81
523.002	4683.81
523.102	4833.81
523.203	4656.81
523.304	4837.81
523.405	4550.81
523.505	4588.81
523.606	4655.81
523.707	4645.81
523.807	4610.81
523.908	4654.81
524.009	4762.81
524.109	4672.81
524.21	4637.81
524.31	4679.81
524.411	4768.81
524.512	4826.81
524.612	4734.81
524.713	4789.81
524.813	4712.81
524.914	4960.81
525.014	9825.81
525.115	5024.81
525.216	4702.81
525.316	4683.81
525.417	4705.81
525.517	4682.81
525.618	4695.81
525.718	4644.81
525.819	4644.81
525.919	4812.81
526.019	4666.81
526.12	4707.81
526.22	4633.81
526.321	4632.81
526.421	4585.81
526.522	4708.81
526.622	4561.81
526.722	4557.81
526.823	4691.81
526.923	4627.81
527.023	4642.81
527.124	4688.81
527.224	4733.81
527.324	4509.81
527.425	4700.81
527.525	4632.81
527.625	4568.81
527.726	4625.81
527.826	4785.81
527.926	4677.81
528.026	4594.81
528.127	4543.81
528.227	4656.81
528.327	4766.81
528.427	4596.81
528.528	4556.81
528.628	4664.81
528.728	4721.81
528.828	4671.81
528.928	4656.81
529.029	4694.81
529.129	4694.81
529.229	4649.81
529.329	4663.81
529.429	4724.81
529.529	4668.81
529.629	4654.81
529.729	4594.81
529.829	4636.81
529.93	4579.81
530.03	4639.81
530.13	4559.81
530.23	4523.81
530.33	4613.81
530.43	4519.81
530.53	4584.81
530.63	4480.81
530.73	4451.81
530.83	4383.81
530.93	4457.81
531.03	4469.81
531.13	4566.81
531.23	4448.81
531.33	4523.81
531.429	4518.81
531.529	4411.81
531.629	4498.81
531.729	4372.81
531.829	4383.81
531.929	4391.81
532.029	4404.81
532.129	4375.81
532.229	4495.81
532.328	4383.81
532.428	4325.81
532.528	4280.81
532.628	4287.81
532.728	4362.81
532.827	4190.81
532.927	4354.81
533.027	4260.81
533.127	4294.81
533.227	4318.81
533.326	4378.81
533.426	4175.81
533.526	4386.81
533.625	4438.81
533.725	4509.81
533.825	4274.81
533.924	4193.81
534.024	4083.81
534.124	4160.81
534.223	4151.81
534.323	4578.81
534.423	4132.81
534.522	4084.81
534.622	4074.81
534.722	4047.81
534.821	4069.81
534.921	4053.81
535.02	3931.81
535.12	4109.81
535.219	4172.81
535.319	4127.81
535.419	4060.81
535.518	3967.81
535.618	4070.81
535.717	4002.81
535.817	3870.81
535.916	3843.81
536.016	3911.81
536.115	3896.81
536.215	3875.81
536.314	3757.81
536.413	3695.81
536.513	3796.81
536.612	3751.81
536.712	3654.81
536.811	3757.81
536.91	3664.81
537.01	3623.81
537.109	3730.81
537.209	3774.81
537.308	3622.81
537.407	3612.81
537.507	3717.81
537.606	3728.81
537.705	3704.81
537.805	3733.81
