Data from sinsal_HRC06701__38__99.txt Node

Date: Thu Apr 18 01:41:41 CDT 2024
User: Estudiantes 2
Spectrometer: HR+C0670
Trigger mode: 4
Integration Time (sec): 1.000000E0
Scans to average: 1
Electric dark correction enabled: true
Nonlinearity correction enabled: false
Boxcar width: 0
XAxis mode: Wavelengths
Number of Pixels in Spectrum: 2048
>>>>>Begin Spectral Data<<<<<
407.81	-98.62
407.921	-98.62
408.032	-98.62
408.143	-120.62
408.254	-63.62
408.365	-3.62
408.476	213.38
408.587	7.38
408.699	0.38
408.81	-27.62
408.921	-45.62
409.032	-38.62
409.143	-9.62
409.254	16.38
409.365	98.38
409.476	-38.62
409.587	16.38
409.698	94.38
409.809	63.38
409.92	-67.62
410.031	23.38
410.142	42.38
410.253	-18.62
410.364	3.38
410.475	10.38
410.585	101.38
410.696	173.38
410.807	147.38
410.918	136.38
411.029	198.38
411.14	230.38
411.251	111.38
411.362	168.38
411.472	211.38
411.583	193.38
411.694	194.38
411.805	188.38
411.916	147.38
412.026	209.38
412.137	172.38
412.248	209.38
412.359	160.38
412.47	130.38
412.58	195.38
412.691	125.38
412.802	163.38
412.912	190.38
413.023	143.38
413.134	128.38
413.245	263.38
413.355	152.38
413.466	106.38
413.577	184.38
413.687	255.38
413.798	74.38
413.909	184.38
414.019	183.38
414.13	173.38
414.24	141.38
414.351	260.38
414.462	271.38
414.572	212.38
414.683	248.38
414.793	136.38
414.904	419.38
415.014	155.38
415.125	153.38
415.235	205.38
415.346	247.38
415.456	281.38
415.567	138.38
415.677	181.38
415.788	243.38
415.898	134.38
416.009	168.38
416.119	248.38
416.23	163.38
416.34	110.38
416.45	192.38
416.561	767.38
416.671	281.38
416.782	134.38
416.892	146.38
417.002	157.38
417.113	221.38
417.223	238.38
417.333	148.38
417.444	115.38
417.554	227.38
417.664	182.38
417.775	152.38
417.885	175.38
417.995	159.38
418.106	245.38
418.216	186.38
418.326	207.38
418.436	144.38
418.547	163.38
418.657	156.38
418.767	202.38
418.877	173.38
418.987	211.38
419.098	190.38
419.208	147.38
419.318	219.38
419.428	216.38
419.538	136.38
419.648	194.38
419.759	263.38
419.869	220.38
419.979	135.38
420.089	211.38
420.199	155.38
420.309	225.38
420.419	259.38
420.529	180.38
420.639	526.38
420.749	274.38
420.859	221.38
420.969	169.38
421.079	426.38
421.189	263.38
421.299	219.38
421.409	148.38
421.519	261.38
421.629	252.38
421.739	171.38
421.849	162.38
421.959	129.38
422.069	229.38
422.179	242.38
422.289	156.38
422.399	175.38
422.509	238.38
422.619	2930.38
422.729	503.38
422.838	159.38
422.948	233.38
423.058	151.38
423.168	180.38
423.278	226.38
423.388	204.38
423.498	257.38
423.607	245.38
423.717	401.38
423.827	438.38
423.937	233.38
424.046	293.38
424.156	240.38
424.266	218.38
424.376	408.38
424.485	354.38
424.595	206.38
424.705	240.38
424.815	227.38
424.924	565.38
425.034	306.38
425.144	154.38
425.253	243.38
425.363	291.38
425.473	290.38
425.582	168.38
425.692	205.38
425.801	223.38
425.911	283.38
426.021	247.38
426.13	366.38
426.24	394.38
426.349	331.38
426.459	294.38
426.568	190.38
426.678	326.38
426.787	268.38
426.897	219.38
427.006	239.38
427.116	319.38
427.225	294.38
427.335	296.38
427.444	246.38
427.554	354.38
427.663	265.38
427.773	199.38
427.882	345.38
427.992	191.38
428.101	234.38
428.21	283.38
428.32	276.38
428.429	220.38
428.539	445.38
428.648	292.38
428.757	301.38
428.867	312.38
428.976	388.38
429.085	286.38
429.195	223.38
429.304	319.38
429.413	284.38
429.523	318.38
429.632	333.38
429.741	293.38
429.85	279.38
429.96	325.38
430.069	254.38
430.178	271.38
430.287	494.38
430.397	333.38
430.506	294.38
430.615	279.38
430.724	361.38
430.833	281.38
430.943	305.38
431.052	334.38
431.161	281.38
431.27	284.38
431.379	293.38
431.488	382.38
431.597	332.38
431.706	358.38
431.816	323.38
431.925	301.38
432.034	289.38
432.143	386.38
432.252	304.38
432.361	344.38
432.47	330.38
432.579	318.38
432.688	313.38
432.797	366.38
432.906	272.38
433.015	325.38
433.124	627.38
433.233	350.38
433.342	385.38
433.451	325.38
433.56	348.38
433.669	307.38
433.778	294.38
433.886	377.38
433.995	301.38
434.104	384.38
434.213	348.38
434.322	298.38
434.431	331.38
434.54	302.38
434.649	397.38
434.757	311.38
434.866	316.38
434.975	402.38
435.084	387.38
435.193	354.38
435.301	589.38
435.41	660.38
435.519	676.38
435.628	386.38
435.737	288.38
435.845	294.38
435.954	293.38
436.063	324.38
436.171	318.38
436.28	340.38
436.389	398.38
436.498	312.38
436.606	331.38
436.715	489.38
436.823	292.38
436.932	265.38
437.041	319.38
437.149	315.38
437.258	255.38
437.367	314.38
437.475	271.38
437.584	436.38
437.692	300.38
437.801	1569.38
437.91	407.38
438.018	284.38
438.127	318.38
438.235	345.38
438.344	288.38
438.452	355.38
438.561	272.38
438.669	239.38
438.778	301.38
438.886	277.38
438.995	234.38
439.103	297.38
439.212	256.38
439.32	230.38
439.428	236.38
439.537	297.38
439.645	339.38
439.754	294.38
439.862	310.38
439.97	276.38
440.079	291.38
440.187	272.38
440.295	327.38
440.404	266.38
440.512	308.38
440.62	338.38
440.729	306.38
440.837	319.38
440.945	835.38
441.054	367.38
441.162	239.38
441.27	394.38
441.378	273.38
441.487	286.38
441.595	597.38
441.703	353.38
441.811	285.38
441.92	263.38
442.028	228.38
442.136	302.38
442.244	323.38
442.352	312.38
442.461	226.38
442.569	234.38
442.677	298.38
442.785	286.38
442.893	308.38
443.001	311.38
443.109	268.38
443.217	233.38
443.325	258.38
443.434	668.38
443.542	467.38
443.65	286.38
443.758	401.38
443.866	267.38
443.974	488.38
444.082	344.38
444.19	266.38
444.298	321.38
444.406	392.38
444.514	262.38
444.622	310.38
444.73	366.38
444.838	282.38
444.946	371.38
445.054	337.38
445.161	319.38
445.269	257.38
445.377	323.38
445.485	363.38
445.593	331.38
445.701	447.38
445.809	405.38
445.917	312.38
446.025	277.38
446.132	406.38
446.24	394.38
446.348	319.38
446.456	279.38
446.564	262.38
446.671	303.38
446.779	291.38
446.887	309.38
446.995	259.38
447.102	305.38
447.21	378.38
447.318	286.38
447.426	257.38
447.533	500.38
447.641	1244.38
447.749	407.38
447.856	298.38
447.964	322.38
448.072	365.38
448.179	316.38
448.287	388.38
448.395	340.38
448.502	297.38
448.61	328.38
448.718	278.38
448.825	340.38
448.933	350.38
449.04	315.38
449.148	290.38
449.256	354.38
449.363	361.38
449.471	311.38
449.578	341.38
449.686	317.38
449.793	380.38
449.901	298.38
450.008	379.38
450.116	343.38
450.223	313.38
450.331	401.38
450.438	313.38
450.546	386.38
450.653	461.38
450.76	401.38
450.868	408.38
450.975	493.38
451.083	376.38
451.19	363.38
451.297	366.38
451.405	435.38
451.512	354.38
451.619	471.38
451.727	470.38
451.834	355.38
451.941	393.38
452.049	432.38
452.156	360.38
452.263	387.38
452.371	399.38
452.478	427.38
452.585	481.38
452.692	383.38
452.8	444.38
452.907	500.38
453.014	448.38
453.121	432.38
453.229	429.38
453.336	467.38
453.443	546.38
453.55	367.38
453.657	437.38
453.765	473.38
453.872	449.38
453.979	451.38
454.086	424.38
454.193	471.38
454.3	377.38
454.407	522.38
454.514	578.38
454.621	411.38
454.729	410.38
454.836	485.38
454.943	433.38
455.05	479.38
455.157	526.38
455.264	470.38
455.371	430.38
455.478	485.38
455.585	1484.38
455.692	613.38
455.799	576.38
455.906	491.38
456.013	421.38
456.12	394.38
456.227	484.38
456.334	503.38
456.44	560.38
456.547	515.38
456.654	427.38
456.761	443.38
456.868	531.38
456.975	526.38
457.082	438.38
457.189	435.38
457.296	521.38
457.402	444.38
457.509	434.38
457.616	516.38
457.723	568.38
457.83	463.38
457.936	459.38
458.043	666.38
458.15	469.38
458.257	566.38
458.363	527.38
458.47	495.38
458.577	508.38
458.684	546.38
458.79	547.38
458.897	483.38
459.004	580.38
459.11	476.38
459.217	515.38
459.324	613.38
459.43	606.38
459.537	704.38
459.644	537.38
459.75	463.38
459.857	784.38
459.964	547.38
460.07	548.38
460.177	530.38
460.283	612.38
460.39	690.38
460.496	539.38
460.603	614.38
460.71	618.38
460.816	507.38
460.923	502.38
461.029	619.38
461.136	580.38
461.242	559.38
461.349	554.38
461.455	558.38
461.562	762.38
461.668	629.38
461.774	581.38
461.881	584.38
461.987	573.38
462.094	606.38
462.2	552.38
462.307	622.38
462.413	531.38
462.519	499.38
462.626	622.38
462.732	556.38
462.838	569.38
462.945	618.38
463.051	590.38
463.157	650.38
463.264	596.38
463.37	613.38
463.476	629.38
463.583	540.38
463.689	521.38
463.795	555.38
463.901	564.38
464.008	614.38
464.114	523.38
464.22	547.38
464.326	559.38
464.433	482.38
464.539	568.38
464.645	511.38
464.751	676.38
464.857	593.38
464.963	475.38
465.07	530.38
465.176	591.38
465.282	512.38
465.388	608.38
465.494	455.38
465.6	507.38
465.706	469.38
465.812	420.38
465.918	552.38
466.024	449.38
466.131	530.38
466.237	531.38
466.343	380.38
466.449	408.38
466.555	436.38
466.661	419.38
466.767	398.38
466.873	476.38
466.979	570.38
467.085	409.38
467.191	472.38
467.296	438.38
467.402	410.38
467.508	474.38
467.614	565.38
467.72	410.38
467.826	371.38
467.932	497.38
468.038	379.38
468.144	422.38
468.25	418.38
468.355	363.38
468.461	443.38
468.567	400.38
468.673	431.38
468.779	411.38
468.885	368.38
468.99	425.38
469.096	343.38
469.202	451.38
469.308	485.38
469.413	408.38
469.519	401.38
469.625	435.38
469.731	412.38
469.836	376.38
469.942	503.38
470.048	441.38
470.153	422.38
470.259	424.38
470.365	503.38
470.47	408.38
470.576	415.38
470.682	439.38
470.787	415.38
470.893	336.38
470.999	457.38
471.104	435.38
471.21	373.38
471.315	342.38
471.421	384.38
471.527	516.38
471.632	482.38
471.738	468.38
471.843	351.38
471.949	409.38
472.054	435.38
472.16	358.38
472.265	358.38
472.371	413.38
472.476	407.38
472.582	489.38
472.687	423.38
472.793	354.38
472.898	375.38
473.003	332.38
473.109	354.38
473.214	318.38
473.32	348.38
473.425	469.38
473.53	356.38
473.636	341.38
473.741	414.38
473.847	386.38
473.952	392.38
474.057	456.38
474.163	449.38
474.268	342.38
474.373	457.38
474.478	387.38
474.584	308.38
474.689	399.38
474.794	443.38
474.9	601.38
475.005	379.38
475.11	526.38
475.215	340.38
475.321	343.38
475.426	545.38
475.531	496.38
475.636	349.38
475.741	362.38
475.846	485.38
475.952	537.38
476.057	454.38
476.162	500.38
476.267	545.38
476.372	652.38
476.477	441.38
476.582	425.38
476.687	380.38
476.793	427.38
476.898	385.38
477.003	405.38
477.108	406.38
477.213	386.38
477.318	401.38
477.423	453.38
477.528	523.38
477.633	457.38
477.738	430.38
477.843	392.38
477.948	377.38
478.053	409.38
478.158	380.38
478.263	430.38
478.368	397.38
478.473	462.38
478.578	475.38
478.682	367.38
478.787	424.38
478.892	449.38
478.997	465.38
479.102	434.38
479.207	447.38
479.312	515.38
479.417	413.38
479.521	437.38
479.626	516.38
479.731	483.38
479.836	486.38
479.941	529.38
480.045	495.38
480.15	485.38
480.255	538.38
480.36	396.38
480.465	423.38
480.569	654.38
480.674	416.38
480.779	386.38
480.883	481.38
480.988	484.38
481.093	421.38
481.197	466.38
481.302	455.38
481.407	453.38
481.511	1927.38
481.616	651.38
481.721	468.38
481.825	612.38
481.93	512.38
482.035	452.38
482.139	522.38
482.244	540.38
482.348	482.38
482.453	494.38
482.557	548.38
482.662	482.38
482.767	418.38
482.871	491.38
482.976	512.38
483.08	461.38
483.185	609.38
483.289	510.38
483.394	467.38
483.498	540.38
483.603	536.38
483.707	514.38
483.811	583.38
483.916	589.38
484.02	511.38
484.125	555.38
484.229	513.38
484.333	602.38
484.438	524.38
484.542	497.38
484.647	495.38
484.751	529.38
484.855	536.38
484.96	578.38
485.064	522.38
485.168	541.38
485.273	563.38
485.377	540.38
485.481	694.38
485.585	517.38
485.69	503.38
485.794	515.38
485.898	535.38
486.002	596.38
486.107	567.38
486.211	597.38
486.315	619.38
486.419	576.38
486.524	536.38
486.628	592.38
486.732	518.38
486.836	544.38
486.94	625.38
487.044	609.38
487.148	525.38
487.253	532.38
487.357	592.38
487.461	696.38
487.565	576.38
487.669	600.38
487.773	531.38
487.877	655.38
487.981	637.38
488.085	625.38
488.189	547.38
488.293	733.38
488.397	907.38
488.501	605.38
488.605	587.38
488.709	622.38
488.813	613.38
488.917	561.38
489.021	615.38
489.125	798.38
489.229	643.38
489.333	767.38
489.437	650.38
489.541	605.38
489.645	599.38
489.749	598.38
489.853	614.38
489.956	619.38
490.06	628.38
490.164	636.38
490.268	583.38
490.372	649.38
490.476	632.38
490.579	576.38
490.683	1156.38
490.787	696.38
490.891	603.38
490.995	701.38
491.098	606.38
491.202	614.38
491.306	696.38
491.41	663.38
491.513	579.38
491.617	596.38
491.721	752.38
491.824	784.38
491.928	665.38
492.032	837.38
492.136	646.38
492.239	591.38
492.343	670.38
492.446	883.38
492.55	684.38
492.654	617.38
492.757	575.38
492.861	656.38
492.965	704.38
493.068	684.38
493.172	635.38
493.275	589.38
493.379	655.38
493.482	696.38
493.586	735.38
493.689	838.38
493.793	614.38
493.896	695.38
494	695.38
494.103	694.38
494.207	882.38
494.31	965.38
494.414	703.38
494.517	639.38
494.621	571.38
494.724	701.38
494.828	607.38
494.931	612.38
495.034	675.38
495.138	757.38
495.241	607.38
495.345	1258.38
495.448	724.38
495.551	604.38
495.655	651.38
495.758	607.38
495.861	557.38
495.965	605.38
496.068	682.38
496.171	639.38
496.274	612.38
496.378	651.38
496.481	615.38
496.584	610.38
496.687	663.38
496.791	641.38
496.894	630.38
496.997	628.38
497.1	614.38
497.204	607.38
497.307	542.38
497.41	802.38
497.513	770.38
497.616	543.38
497.719	623.38
497.823	580.38
497.926	596.38
498.029	613.38
498.132	610.38
498.235	626.38
498.338	669.38
498.441	789.38
498.544	600.38
498.647	618.38
498.75	709.38
498.853	765.38
498.956	646.38
499.059	819.38
499.163	651.38
499.266	675.38
499.369	757.38
499.471	699.38
499.574	761.38
499.677	727.38
499.78	719.38
499.883	675.38
499.986	724.38
500.089	769.38
500.192	739.38
500.295	724.38
500.398	769.38
500.501	791.38
500.604	667.38
500.707	704.38
500.809	725.38
500.912	765.38
501.015	828.38
501.118	711.38
501.221	778.38
501.324	703.38
501.426	692.38
501.529	637.38
501.632	643.38
501.735	630.38
501.837	569.38
501.94	610.38
502.043	646.38
502.146	627.38
502.248	612.38
502.351	608.38
502.454	578.38
502.557	549.38
502.659	602.38
502.762	550.38
502.865	514.38
502.967	536.38
503.07	592.38
503.173	575.38
503.275	533.38
503.378	581.38
503.48	501.38
503.583	581.38
503.686	652.38
503.788	757.38
503.891	572.38
503.993	740.38
504.096	570.38
504.198	513.38
504.301	503.38
504.403	557.38
504.506	515.38
504.608	508.38
504.711	559.38
504.813	601.38
504.916	523.38
505.018	541.38
505.121	475.38
505.223	541.38
505.326	567.38
505.428	599.38
505.531	507.38
505.633	514.38
505.735	531.38
505.838	470.38
505.94	504.38
506.042	515.38
506.145	481.38
506.247	538.38
506.35	509.38
506.452	552.38
506.554	558.38
506.656	569.38
506.759	459.38
506.861	536.38
506.963	515.38
507.066	535.38
507.168	543.38
507.27	512.38
507.372	528.38
507.475	426.38
507.577	511.38
507.679	572.38
507.781	424.38
507.883	500.38
507.986	492.38
508.088	481.38
508.19	519.38
508.292	530.38
508.394	477.38
508.496	384.38
508.598	483.38
508.701	479.38
508.803	478.38
508.905	456.38
509.007	512.38
509.109	495.38
509.211	500.38
509.313	482.38
509.415	430.38
509.517	453.38
509.619	447.38
509.721	502.38
509.823	485.38
509.925	588.38
510.027	515.38
510.129	442.38
510.231	470.38
510.333	479.38
510.435	441.38
510.537	504.38
510.639	591.38
510.741	463.38
510.843	505.38
510.945	498.38
511.047	542.38
511.148	455.38
511.25	428.38
511.352	487.38
511.454	387.38
511.556	472.38
511.658	476.38
511.76	501.38
511.861	575.38
511.963	486.38
512.065	409.38
512.167	477.38
512.268	638.38
512.37	512.38
512.472	457.38
512.574	528.38
512.676	506.38
512.777	427.38
512.879	415.38
512.981	438.38
513.082	474.38
513.184	446.38
513.286	879.38
513.387	571.38
513.489	571.38
513.591	567.38
513.692	541.38
513.794	492.38
513.896	418.38
513.997	442.38
514.099	403.38
514.2	458.38
514.302	526.38
514.404	446.38
514.505	406.38
514.607	563.38
514.708	460.38
514.81	489.38
514.911	578.38
515.013	524.38
515.114	529.38
515.216	499.38
515.317	478.38
515.419	460.38
515.52	533.38
515.622	535.38
515.723	500.38
515.825	579.38
515.926	555.38
516.027	479.38
516.129	487.38
516.23	543.38
516.332	461.38
516.433	461.38
516.534	580.38
516.636	479.38
516.737	494.38
516.838	1282.38
516.94	629.38
517.041	504.38
517.142	637.38
517.244	684.38
517.345	547.38
517.446	565.38
517.547	617.38
517.649	505.38
517.75	546.38
517.851	565.38
517.952	775.38
518.054	572.38
518.155	645.38
518.256	546.38
518.357	617.38
518.458	494.38
518.56	546.38
518.661	542.38
518.762	535.38
518.863	673.38
518.964	646.38
519.065	527.38
519.166	588.38
519.268	500.38
519.369	721.38
519.47	602.38
519.571	616.38
519.672	492.38
519.773	539.38
519.874	627.38
519.975	573.38
520.076	534.38
520.177	714.38
520.278	554.38
520.379	558.38
520.48	551.38
520.581	507.38
520.682	541.38
520.783	570.38
520.884	595.38
520.985	589.38
521.086	576.38
521.187	640.38
521.288	539.38
521.389	586.38
521.489	604.38
521.59	486.38
521.691	603.38
521.792	593.38
521.893	692.38
521.994	706.38
522.095	656.38
522.195	647.38
522.296	654.38
522.397	695.38
522.498	621.38
522.599	500.38
522.699	576.38
522.8	634.38
522.901	691.38
523.002	613.38
523.102	820.38
523.203	630.38
523.304	761.38
523.405	652.38
523.505	667.38
523.606	650.38
523.707	683.38
523.807	663.38
523.908	619.38
524.009	705.38
524.109	707.38
524.21	633.38
524.31	710.38
524.411	764.38
524.512	747.38
524.612	670.38
524.713	848.38
524.813	664.38
524.914	862.38
525.014	5239.38
525.115	1071.38
525.216	622.38
525.316	670.38
525.417	724.38
525.517	616.38
525.618	613.38
525.718	589.38
525.819	554.38
525.919	672.38
526.019	611.38
526.12	627.38
526.22	558.38
526.321	629.38
526.421	539.38
526.522	580.38
526.622	523.38
526.722	568.38
526.823	546.38
526.923	601.38
527.023	722.38
527.124	584.38
527.224	614.38
527.324	604.38
527.425	613.38
527.525	515.38
527.625	610.38
527.726	616.38
527.826	640.38
527.926	626.38
528.026	665.38
528.127	579.38
528.227	601.38
528.327	744.38
528.427	618.38
528.528	628.38
528.628	739.38
528.728	643.38
528.828	728.38
528.928	762.38
529.029	641.38
529.129	695.38
529.229	726.38
529.329	707.38
529.429	716.38
529.529	754.38
529.629	715.38
529.729	632.38
529.829	778.38
529.93	694.38
530.03	647.38
530.13	609.38
530.23	669.38
530.33	646.38
530.43	584.38
530.53	648.38
530.63	644.38
530.73	518.38
530.83	514.38
530.93	559.38
531.03	502.38
531.13	634.38
531.23	592.38
531.33	557.38
531.429	615.38
531.529	646.38
531.629	606.38
531.729	473.38
531.829	531.38
531.929	533.38
532.029	567.38
532.129	588.38
532.229	590.38
532.328	558.38
532.428	511.38
532.528	555.38
532.628	512.38
532.728	555.38
532.827	569.38
532.927	638.38
533.027	604.38
533.127	742.38
533.227	663.38
533.326	639.38
533.426	616.38
533.526	684.38
533.625	695.38
533.725	843.38
533.825	713.38
533.924	499.38
534.024	486.38
534.124	521.38
534.223	532.38
534.323	811.38
534.423	608.38
534.522	558.38
534.622	460.38
534.722	579.38
534.821	586.38
534.921	527.38
535.02	490.38
535.12	646.38
535.219	632.38
535.319	651.38
535.419	634.38
535.518	527.38
535.618	581.38
535.717	649.38
535.817	499.38
535.916	453.38
536.016	587.38
536.115	484.38
536.215	473.38
536.314	479.38
536.413	444.38
536.513	462.38
536.612	474.38
536.712	473.38
536.811	464.38
536.91	413.38
537.01	469.38
537.109	487.38
537.209	479.38
537.308	495.38
537.407	461.38
537.507	480.38
537.606	496.38
537.705	542.38
537.805	485.38
537.904	453.38
538.003	550.38
538.102	568.38
538.202	536.38
538.301	636.38
538.4	550.38
538.499	536.38
538.599	583.38
538.698	716.38
538.797	520.38
538.896	609.38
538.995	603.38
539.095	505.38
539.194	713.38
539.293	601.38
539.392	528.38
539.491	518.38
539.59	556.38
539.689	600.38
539.789	573.38
539.888	438.38
539.987	446.38
540.086	492.38
540.185	563.38
540.284	533.38
540.383	488.38
540.482	513.38
540.581	590.38
540.68	500.38
540.779	602.38
540.878	609.38
540.977	580.38
541.076	586.38
541.175	679.38
541.274	776.38
541.373	670.38
541.472	677.38
541.571	606.38
541.67	1609.38
541.769	699.38
541.868	673.38
541.966	594.38
542.065	583.38
542.164	645.38
542.263	527.38
542.362	571.38
542.461	673.38
542.56	609.38
542.658	619.38
542.757	536.38
542.856	501.38
542.955	482.38
543.054	461.38
543.152	667.38
543.251	560.38
543.35	634.38
543.449	614.38
543.547	550.38
543.646	532.38
543.745	620.38
543.843	594.38
543.942	594.38
544.041	595.38
544.14	575.38
544.238	555.38
544.337	760.38
544.436	714.38
544.534	680.38
544.633	638.38
544.731	699.38
544.83	619.38
544.929	638.38
545.027	668.38
545.126	585.38
545.224	650.38
545.323	603.38
545.421	601.38
545.52	574.38
545.619	616.38
545.717	671.38
545.816	646.38
545.914	623.38
