Data from sinsal_HRC06701__52__113.txt Node

Date: Thu Apr 18 01:41:55 CDT 2024
User: Estudiantes 2
Spectrometer: HR+C0670
Trigger mode: 4
Integration Time (sec): 1.000000E0
Scans to average: 1
Electric dark correction enabled: true
Nonlinearity correction enabled: false
Boxcar width: 0
XAxis mode: Wavelengths
Number of Pixels in Spectrum: 2048
>>>>>Begin Spectral Data<<<<<
407.81	-135.56
407.921	-135.56
408.032	-135.56
408.143	-90.56
408.254	-71.56
408.365	27.44
408.476	169.44
408.587	-19.56
408.699	19.44
408.81	-29.56
408.921	-44.56
409.032	11.44
409.143	25.44
409.254	1.44
409.365	91.44
409.476	-57.56
409.587	2.44
409.698	100.44
409.809	43.44
409.92	-8.56
410.031	16.44
410.142	77.44
410.253	2.44
410.364	51.44
410.475	159.44
410.585	615.44
410.696	775.44
410.807	803.44
410.918	729.44
411.029	809.44
411.14	796.44
411.251	746.44
411.362	812.44
411.472	813.44
411.583	792.44
411.694	832.44
411.805	778.44
411.916	786.44
412.026	849.44
412.137	782.44
412.248	831.44
412.359	755.44
412.47	748.44
412.58	817.44
412.691	786.44
412.802	775.44
412.912	808.44
413.023	773.44
413.134	776.44
413.245	816.44
413.355	799.44
413.466	693.44
413.577	767.44
413.687	856.44
413.798	751.44
413.909	824.44
414.019	839.44
414.13	813.44
414.24	741.44
414.351	849.44
414.462	909.44
414.572	781.44
414.683	837.44
414.793	807.44
414.904	1042.44
415.014	787.44
415.125	800.44
415.235	826.44
415.346	889.44
415.456	914.44
415.567	790.44
415.677	768.44
415.788	870.44
415.898	747.44
416.009	763.44
416.119	822.44
416.23	783.44
416.34	785.44
416.45	803.44
416.561	1314.44
416.671	830.44
416.782	718.44
416.892	814.44
417.002	811.44
417.113	817.44
417.223	871.44
417.333	806.44
417.444	806.44
417.554	833.44
417.664	869.44
417.775	774.44
417.885	836.44
417.995	853.44
418.106	920.44
418.216	838.44
418.326	876.44
418.436	815.44
418.547	852.44
418.657	829.44
418.767	907.44
418.877	848.44
418.987	894.44
419.098	904.44
419.208	873.44
419.318	931.44
419.428	994.44
419.538	815.44
419.648	873.44
419.759	937.44
419.869	895.44
419.979	864.44
420.089	919.44
420.199	867.44
420.309	929.44
420.419	946.44
420.529	870.44
420.639	1138.44
420.749	987.44
420.859	953.44
420.969	863.44
421.079	1111.44
421.189	998.44
421.299	937.44
421.409	856.44
421.519	1092.44
421.629	986.44
421.739	925.44
421.849	959.44
421.959	877.44
422.069	983.44
422.179	910.44
422.289	937.44
422.399	975.44
422.509	1032.44
422.619	3730.44
422.729	1200.44
422.838	880.44
422.948	1022.44
423.058	933.44
423.168	1009.44
423.278	1025.44
423.388	1042.44
423.498	1069.44
423.607	1019.44
423.717	1265.44
423.827	1221.44
423.937	1093.44
424.046	1195.44
424.156	1139.44
424.266	1048.44
424.376	1276.44
424.485	1187.44
424.595	1115.44
424.705	1119.44
424.815	1054.44
424.924	1433.44
425.034	1227.44
425.144	1062.44
425.253	1126.44
425.363	1174.44
425.473	1221.44
425.582	1109.44
425.692	1102.44
425.801	1155.44
425.911	1304.44
426.021	1167.44
426.13	1293.44
426.24	1381.44
426.349	1256.44
426.459	1217.44
426.568	1203.44
426.678	1305.44
426.787	1265.44
426.897	1216.44
427.006	1236.44
427.116	1281.44
427.225	1298.44
427.335	1315.44
427.444	1264.44
427.554	1368.44
427.663	1282.44
427.773	1277.44
427.882	1393.44
427.992	1269.44
428.101	1265.44
428.21	1340.44
428.32	1383.44
428.429	1287.44
428.539	1544.44
428.648	1416.44
428.757	1404.44
428.867	1440.44
428.976	1519.44
429.085	1403.44
429.195	1390.44
429.304	1434.44
429.413	1451.44
429.523	1440.44
429.632	1483.44
429.741	1489.44
429.85	1339.44
429.96	1495.44
430.069	1440.44
430.178	1445.44
430.287	1658.44
430.397	1506.44
430.506	1477.44
430.615	1477.44
430.724	1552.44
430.833	1483.44
430.943	1517.44
431.052	1545.44
431.161	1530.44
431.27	1522.44
431.379	1513.44
431.488	1701.44
431.597	1592.44
431.706	1615.44
431.816	1627.44
431.925	1555.44
432.034	1522.44
432.143	1629.44
432.252	1591.44
432.361	1589.44
432.47	1605.44
432.579	1550.44
432.688	1597.44
432.797	1579.44
432.906	1539.44
433.015	1602.44
433.124	1889.44
433.233	1650.44
433.342	1594.44
433.451	1606.44
433.56	1651.44
433.669	1592.44
433.778	1547.44
433.886	1666.44
433.995	1585.44
434.104	1709.44
434.213	1645.44
434.322	1656.44
434.431	1653.44
434.54	1676.44
434.649	1884.44
434.757	1723.44
434.866	1693.44
434.975	1801.44
435.084	1695.44
435.193	1690.44
435.301	1946.44
435.41	1912.44
435.519	2039.44
435.628	1595.44
435.737	1574.44
435.845	1504.44
435.954	1487.44
436.063	1580.44
436.171	1520.44
436.28	1496.44
436.389	1665.44
436.498	1538.44
436.606	1517.44
436.715	1638.44
436.823	1435.44
436.932	1460.44
437.041	1453.44
437.149	1502.44
437.258	1369.44
437.367	1438.44
437.475	1413.44
437.584	1607.44
437.692	1417.44
437.801	2610.44
437.91	1522.44
438.018	1379.44
438.127	1421.44
438.235	1440.44
438.344	1398.44
438.452	1391.44
438.561	1330.44
438.669	1333.44
438.778	1348.44
438.886	1398.44
438.995	1320.44
439.103	1361.44
439.212	1417.44
439.32	1360.44
439.428	1355.44
439.537	1442.44
439.645	1427.44
439.754	1443.44
439.862	1350.44
439.97	1367.44
440.079	1382.44
440.187	1351.44
440.295	1529.44
440.404	1373.44
440.512	1378.44
440.62	1470.44
440.729	1460.44
440.837	1473.44
440.945	1996.44
441.054	1505.44
441.162	1438.44
441.27	1590.44
441.378	1481.44
441.487	1502.44
441.595	1787.44
441.703	1626.44
441.811	1498.44
441.92	1516.44
442.028	1394.44
442.136	1477.44
442.244	1500.44
442.352	1506.44
442.461	1352.44
442.569	1330.44
442.677	1453.44
442.785	1428.44
442.893	1418.44
443.001	1471.44
443.109	1435.44
443.217	1396.44
443.325	1383.44
443.434	1864.44
443.542	1606.44
443.65	1469.44
443.758	1631.44
443.866	1443.44
443.974	1725.44
444.082	1618.44
444.19	1595.44
444.298	1547.44
444.406	1650.44
444.514	1626.44
444.622	1663.44
444.73	1701.44
444.838	1647.44
444.946	1649.44
445.054	1519.44
445.161	1570.44
445.269	1528.44
445.377	1580.44
445.485	1647.44
445.593	1504.44
445.701	1695.44
445.809	1624.44
445.917	1537.44
446.025	1436.44
446.132	1580.44
446.24	1586.44
446.348	1485.44
446.456	1416.44
446.564	1489.44
446.671	1432.44
446.779	1470.44
446.887	1471.44
446.995	1425.44
447.102	1522.44
447.21	1567.44
447.318	1528.44
447.426	1433.44
447.533	1683.44
447.641	2505.44
447.749	1586.44
447.856	1528.44
447.964	1518.44
448.072	1594.44
448.179	1518.44
448.287	1638.44
448.395	1552.44
448.502	1478.44
448.61	1583.44
448.718	1482.44
448.825	1549.44
448.933	1567.44
449.04	1502.44
449.148	1501.44
449.256	1534.44
449.363	1634.44
449.471	1608.44
449.578	1660.44
449.686	1590.44
449.793	1646.44
449.901	1596.44
450.008	1686.44
450.116	1618.44
450.223	1562.44
450.331	1718.44
450.438	1668.44
450.546	1703.44
450.653	1741.44
450.76	1719.44
450.868	1750.44
450.975	1869.44
451.083	1778.44
451.19	1778.44
451.297	1720.44
451.405	1802.44
451.512	1740.44
451.619	1807.44
451.727	1948.44
451.834	1791.44
451.941	1763.44
452.049	1832.44
452.156	1778.44
452.263	1826.44
452.371	1842.44
452.478	1871.44
452.585	1894.44
452.692	1814.44
452.8	1916.44
452.907	1934.44
453.014	1826.44
453.121	1864.44
453.229	1847.44
453.336	1952.44
453.443	2005.44
453.55	1925.44
453.657	1926.44
453.765	1976.44
453.872	1925.44
453.979	1944.44
454.086	1947.44
454.193	1949.44
454.3	1875.44
454.407	2077.44
454.514	2099.44
454.621	1914.44
454.729	1968.44
454.836	2027.44
454.943	2025.44
455.05	2008.44
455.157	2091.44
455.264	2041.44
455.371	2057.44
455.478	2040.44
455.585	3181.44
455.692	2183.44
455.799	2179.44
455.906	2063.44
456.013	1996.44
456.12	2093.44
456.227	2202.44
456.334	2108.44
456.44	2242.44
456.547	2107.44
456.654	2100.44
456.761	2158.44
456.868	2228.44
456.975	2236.44
457.082	2143.44
457.189	2120.44
457.296	2280.44
457.402	2132.44
457.509	2180.44
457.616	2320.44
457.723	2374.44
457.83	2218.44
457.936	2292.44
458.043	2438.44
458.15	2247.44
458.257	2366.44
458.363	2442.44
458.47	2347.44
458.577	2420.44
458.684	2393.44
458.79	2440.44
458.897	2413.44
459.004	2575.44
459.11	2473.44
459.217	2487.44
459.324	2592.44
459.43	2652.44
459.537	2744.44
459.644	2617.44
459.75	2682.44
459.857	2927.44
459.964	2670.44
460.07	2694.44
460.177	2713.44
460.283	2755.44
460.39	2996.44
460.496	2746.44
460.603	2740.44
460.71	2723.44
460.816	2697.44
460.923	2681.44
461.029	2735.44
461.136	2757.44
461.242	2699.44
461.349	2721.44
461.455	2732.44
461.562	2967.44
461.668	2779.44
461.774	2828.44
461.881	2837.44
461.987	2830.44
462.094	2859.44
462.2	2862.44
462.307	2922.44
462.413	2850.44
462.519	2971.44
462.626	3120.44
462.732	3003.44
462.838	3106.44
462.945	3136.44
463.051	3182.44
463.157	3125.44
463.264	3108.44
463.37	3141.44
463.476	3066.44
463.583	3056.44
463.689	2884.44
463.795	2948.44
463.901	2965.44
464.008	2985.44
464.114	2915.44
464.22	2942.44
464.326	2955.44
464.433	2821.44
464.539	2844.44
464.645	2700.44
464.751	2910.44
464.857	2735.44
464.963	2609.44
465.07	2659.44
465.176	2602.44
465.282	2473.44
465.388	2536.44
465.494	2405.44
465.6	2388.44
465.706	2263.44
465.812	2206.44
465.918	2373.44
466.024	2239.44
466.131	2318.44
466.237	2289.44
466.343	2073.44
466.449	2122.44
466.555	2105.44
466.661	2078.44
466.767	2053.44
466.873	2078.44
466.979	2176.44
467.085	2031.44
467.191	2122.44
467.296	2074.44
467.402	1932.44
467.508	2046.44
467.614	2183.44
467.72	1961.44
467.826	1892.44
467.932	1962.44
468.038	1849.44
468.144	1866.44
468.25	1891.44
468.355	1907.44
468.461	1871.44
468.567	1794.44
468.673	1921.44
468.779	1869.44
468.885	1879.44
468.99	1878.44
469.096	1815.44
469.202	2007.44
469.308	1904.44
469.413	1927.44
469.519	1884.44
469.625	1880.44
469.731	1885.44
469.836	1787.44
469.942	1959.44
470.048	1914.44
470.153	1894.44
470.259	1886.44
470.365	1978.44
470.47	1902.44
470.576	1872.44
470.682	1898.44
470.787	1861.44
470.893	1798.44
470.999	1887.44
471.104	1839.44
471.21	1820.44
471.315	1712.44
471.421	1794.44
471.527	1839.44
471.632	1753.44
471.738	1827.44
471.843	1641.44
471.949	1743.44
472.054	1741.44
472.16	1625.44
472.265	1591.44
472.371	1660.44
472.476	1673.44
472.582	1678.44
472.687	1629.44
472.793	1702.44
472.898	1592.44
473.003	1598.44
473.109	1635.44
473.214	1561.44
473.32	1552.44
473.425	1716.44
473.53	1594.44
473.636	1541.44
473.741	1639.44
473.847	1609.44
473.952	1604.44
474.057	1649.44
474.163	1643.44
474.268	1571.44
474.373	1622.44
474.478	1606.44
474.584	1537.44
474.689	1623.44
474.794	1677.44
474.9	1737.44
475.005	1559.44
475.11	1778.44
475.215	1561.44
475.321	1499.44
475.426	1788.44
475.531	1730.44
475.636	1560.44
475.741	1557.44
475.846	1743.44
475.952	1805.44
476.057	1700.44
476.162	1767.44
476.267	1731.44
476.372	1903.44
476.477	1686.44
476.582	1726.44
476.687	1640.44
476.793	1640.44
476.898	1703.44
477.003	1625.44
477.108	1690.44
477.213	1613.44
477.318	1673.44
477.423	1776.44
477.528	1812.44
477.633	1803.44
477.738	1710.44
477.843	1745.44
477.948	1758.44
478.053	1747.44
478.158	1840.44
478.263	1848.44
478.368	1790.44
478.473	1904.44
478.578	1898.44
478.682	1743.44
478.787	1886.44
478.892	1896.44
478.997	1841.44
479.102	1926.44
479.207	1925.44
479.312	1920.44
479.417	1916.44
479.521	1900.44
479.626	1964.44
479.731	1911.44
479.836	1897.44
479.941	2062.44
480.045	1993.44
480.15	1965.44
480.255	2051.44
480.36	1930.44
480.465	1953.44
480.569	2185.44
480.674	1932.44
480.779	1904.44
480.883	1924.44
480.988	1976.44
481.093	1931.44
481.197	1961.44
481.302	2002.44
481.407	2002.44
481.511	3438.44
481.616	2183.44
481.721	1952.44
481.825	2090.44
481.93	1994.44
482.035	1936.44
482.139	2023.44
482.244	2046.44
482.348	2006.44
482.453	2016.44
482.557	2102.44
482.662	2024.44
482.767	1960.44
482.871	2025.44
482.976	2053.44
483.08	2016.44
483.185	2241.44
483.289	2055.44
483.394	2013.44
483.498	2134.44
483.603	2112.44
483.707	2116.44
483.811	2134.44
483.916	2224.44
484.02	2187.44
484.125	2253.44
484.229	2154.44
484.333	2339.44
484.438	2137.44
484.542	2132.44
484.647	2254.44
484.751	2286.44
484.855	2271.44
484.96	2328.44
485.064	2297.44
485.168	2305.44
485.273	2369.44
485.377	2347.44
485.481	2451.44
485.585	2345.44
485.69	2343.44
485.794	2346.44
485.898	2358.44
486.002	2330.44
486.107	2378.44
486.211	2341.44
486.315	2416.44
486.419	2389.44
486.524	2441.44
486.628	2383.44
486.732	2386.44
486.836	2392.44
486.94	2470.44
487.044	2431.44
487.148	2378.44
487.253	2287.44
487.357	2433.44
487.461	2521.44
487.565	2479.44
487.669	2499.44
487.773	2348.44
487.877	2490.44
487.981	2626.44
488.085	2510.44
488.189	2450.44
488.293	2640.44
488.397	2895.44
488.501	2514.44
488.605	2466.44
488.709	2450.44
488.813	2401.44
488.917	2418.44
489.021	2510.44
489.125	2683.44
489.229	2462.44
489.333	2637.44
489.437	2507.44
489.541	2527.44
489.645	2472.44
489.749	2516.44
489.853	2527.44
489.956	2514.44
490.06	2590.44
490.164	2548.44
490.268	2518.44
490.372	2544.44
490.476	2591.44
490.579	2541.44
490.683	3133.44
490.787	2634.44
490.891	2543.44
490.995	2539.44
491.098	2517.44
491.202	2542.44
491.306	2573.44
491.41	2623.44
491.513	2482.44
491.617	2543.44
491.721	2746.44
491.824	2743.44
491.928	2504.44
492.032	2784.44
492.136	2587.44
492.239	2531.44
492.343	2668.44
492.446	2859.44
492.55	2638.44
492.654	2558.44
492.757	2553.44
492.861	2535.44
492.965	2568.44
493.068	2568.44
493.172	2543.44
493.275	2545.44
493.379	2543.44
493.482	2611.44
493.586	2653.44
493.689	2765.44
493.793	2477.44
493.896	2591.44
494	2623.44
494.103	2607.44
494.207	2849.44
494.31	2818.44
494.414	2749.44
494.517	2560.44
494.621	2473.44
494.724	2620.44
494.828	2546.44
494.931	2541.44
495.034	2549.44
495.138	2617.44
495.241	2460.44
495.345	3124.44
495.448	2631.44
495.551	2470.44
495.655	2483.44
495.758	2471.44
495.861	2417.44
495.965	2466.44
496.068	2592.44
496.171	2572.44
496.274	2462.44
496.378	2495.44
496.481	2538.44
496.584	2538.44
496.687	2600.44
496.791	2617.44
496.894	2582.44
496.997	2547.44
497.1	2558.44
497.204	2567.44
497.307	2518.44
497.41	2744.44
497.513	2717.44
497.616	2589.44
497.719	2657.44
497.823	2611.44
497.926	2700.44
498.029	2818.44
498.132	2752.44
498.235	2765.44
498.338	2865.44
498.441	2881.44
498.544	2886.44
498.647	2993.44
498.75	3140.44
498.853	3211.44
498.956	3161.44
499.059	3346.44
499.163	3271.44
499.266	3361.44
499.369	3481.44
499.471	3526.44
499.574	3718.44
499.677	3686.44
499.78	4070.44
499.883	3886.44
499.986	4175.44
500.089	4308.44
500.192	4294.44
500.295	4391.44
500.398	4324.44
500.501	4249.44
500.604	4161.44
500.707	4154.44
500.809	3985.44
500.912	3855.44
501.015	3786.44
501.118	3640.44
501.221	3516.44
501.324	3405.44
501.426	3337.44
501.529	3167.44
501.632	3150.44
501.735	3022.44
501.837	2884.44
501.94	2919.44
502.043	2732.44
502.146	2780.44
502.248	2674.44
502.351	2650.44
502.454	2608.44
502.557	2521.44
502.659	2558.44
502.762	2430.44
502.865	2386.44
502.967	2375.44
503.07	2449.44
503.173	2432.44
503.275	2358.44
503.378	2349.44
503.48	2307.44
503.583	2311.44
503.686	2307.44
503.788	2459.44
503.891	2238.44
503.993	2377.44
504.096	2265.44
504.198	2231.44
504.301	2142.44
504.403	2277.44
504.506	2211.44
504.608	2166.44
504.711	2213.44
504.813	2200.44
504.916	2142.44
505.018	2077.44
505.121	1922.44
505.223	1992.44
505.326	1951.44
505.428	2057.44
505.531	1903.44
505.633	1987.44
505.735	1925.44
505.838	1870.44
505.94	1903.44
506.042	1879.44
506.145	1841.44
506.247	1926.44
506.35	1889.44
506.452	1901.44
506.554	1908.44
506.656	1916.44
506.759	1778.44
506.861	1843.44
506.963	1788.44
507.066	1864.44
507.168	1869.44
507.27	1783.44
507.372	1764.44
507.475	1736.44
507.577	1795.44
507.679	1812.44
507.781	1719.44
507.883	1842.44
507.986	1733.44
508.088	1800.44
508.19	1731.44
508.292	1755.44
508.394	1701.44
508.496	1654.44
508.598	1701.44
508.701	1715.44
508.803	1699.44
508.905	1680.44
509.007	1756.44
509.109	1750.44
509.211	1788.44
509.313	1758.44
509.415	1623.44
509.517	1640.44
509.619	1640.44
509.721	1708.44
509.823	1647.44
509.925	1779.44
510.027	1698.44
510.129	1691.44
510.231	1689.44
510.333	1704.44
510.435	1615.44
510.537	1706.44
510.639	1753.44
510.741	1635.44
510.843	1712.44
510.945	1720.44
511.047	1792.44
511.148	1739.44
511.25	1642.44
511.352	1697.44
511.454	1589.44
511.556	1701.44
511.658	1673.44
511.76	1751.44
511.861	1742.44
511.963	1663.44
512.065	1582.44
512.167	1590.44
512.268	1834.44
512.37	1712.44
512.472	1681.44
512.574	1736.44
512.676	1787.44
512.777	1631.44
512.879	1647.44
512.981	1668.44
513.082	1666.44
513.184	1676.44
513.286	2147.44
513.387	1763.44
513.489	1823.44
513.591	1817.44
513.692	1830.44
513.794	1759.44
513.896	1685.44
513.997	1671.44
514.099	1681.44
514.2	1799.44
514.302	1782.44
514.404	1780.44
514.505	1721.44
514.607	1863.44
514.708	1731.44
514.81	1810.44
514.911	1779.44
515.013	1852.44
515.114	1788.44
515.216	1817.44
515.317	1856.44
515.419	1769.44
515.52	1858.44
515.622	1897.44
515.723	1866.44
515.825	2032.44
515.926	1930.44
516.027	1863.44
516.129	1879.44
516.23	1948.44
516.332	1890.44
516.433	1924.44
516.534	2051.44
516.636	1959.44
516.737	1993.44
516.838	2897.44
516.94	2229.44
517.041	2107.44
517.142	2219.44
517.244	2306.44
517.345	2201.44
517.446	2221.44
517.547	2349.44
517.649	2154.44
517.75	2168.44
517.851	2188.44
517.952	2412.44
518.054	2171.44
518.155	2307.44
518.256	2136.44
518.357	2226.44
518.458	2111.44
518.56	2125.44
518.661	2188.44
518.762	2116.44
518.863	2249.44
518.964	2147.44
519.065	2024.44
519.166	2055.44
519.268	2011.44
519.369	2246.44
519.47	1997.44
519.571	2064.44
519.672	1988.44
519.773	1919.44
519.874	2035.44
519.975	2085.44
520.076	1967.44
520.177	2093.44
520.278	1989.44
520.379	1999.44
520.48	1942.44
520.581	1920.44
520.682	1919.44
520.783	1948.44
520.884	2044.44
520.985	1951.44
521.086	1939.44
521.187	2004.44
521.288	1878.44
521.389	1949.44
521.489	1930.44
521.59	1906.44
521.691	1926.44
521.792	1982.44
521.893	2006.44
521.994	2044.44
522.095	2028.44
522.195	2057.44
522.296	2034.44
522.397	2039.44
522.498	2002.44
522.599	1899.44
522.699	1939.44
522.8	1985.44
522.901	1934.44
523.002	1969.44
523.102	2209.44
523.203	1993.44
523.304	2117.44
523.405	1990.44
523.505	2052.44
523.606	2016.44
523.707	2061.44
523.807	2043.44
523.908	1958.44
524.009	2104.44
524.109	2063.44
524.21	1920.44
524.31	2057.44
524.411	2087.44
524.512	2111.44
524.612	2059.44
524.713	2189.44
524.813	1986.44
524.914	2235.44
525.014	6769.44
525.115	2461.44
525.216	1988.44
525.316	2004.44
525.417	2113.44
525.517	1990.44
525.618	1944.44
525.718	2072.44
525.819	1950.44
525.919	2004.44
526.019	2006.44
526.12	2057.44
526.22	1929.44
526.321	2030.44
526.421	1956.44
526.522	1956.44
526.622	1875.44
526.722	1960.44
526.823	1942.44
526.923	1975.44
527.023	2080.44
527.124	2003.44
527.224	2042.44
527.324	2016.44
527.425	1985.44
527.525	1935.44
527.625	2015.44
527.726	2001.44
527.826	2018.44
527.926	2018.44
528.026	2054.44
528.127	1903.44
528.227	1998.44
528.327	2089.44
528.427	1982.44
528.528	2023.44
528.628	2088.44
528.728	2017.44
528.828	2035.44
528.928	2095.44
529.029	2081.44
529.129	2016.44
529.229	2050.44
529.329	2039.44
529.429	2108.44
529.529	2063.44
529.629	2065.44
529.729	1959.44
529.829	2050.44
529.93	1965.44
530.03	1971.44
530.13	1905.44
530.23	1935.44
530.33	1929.44
530.43	1916.44
530.53	1919.44
530.63	1944.44
530.73	1865.44
530.83	1842.44
530.93	1898.44
531.03	1852.44
531.13	1920.44
531.23	1927.44
531.33	1868.44
531.429	1954.44
531.529	1953.44
531.629	1897.44
531.729	1834.44
531.829	1829.44
531.929	1804.44
532.029	1882.44
532.129	1859.44
532.229	1935.44
532.328	1833.44
532.428	1882.44
532.528	1827.44
532.628	1781.44
532.728	1800.44
532.827	1854.44
532.927	1881.44
533.027	1840.44
533.127	2032.44
533.227	1906.44
533.326	1879.44
533.426	1772.44
533.526	1947.44
533.625	1907.44
533.725	2044.44
533.825	1894.44
533.924	1726.44
534.024	1700.44
534.124	1811.44
534.223	1788.44
534.323	2107.44
534.423	1778.44
534.522	1770.44
534.622	1700.44
534.722	1737.44
534.821	1798.44
534.921	1728.44
535.02	1660.44
535.12	1861.44
535.219	1806.44
535.319	1727.44
535.419	1811.44
535.518	1647.44
535.618	1690.44
535.717	1763.44
535.817	1677.44
535.916	1591.44
536.016	1725.44
536.115	1692.44
536.215	1593.44
536.314	1595.44
536.413	1576.44
536.513	1578.44
536.612	1588.44
536.712	1606.44
536.811	1532.44
536.91	1505.44
537.01	1600.44
537.109	1610.44
537.209	1608.44
537.308	1591.44
537.407	1587.44
537.507	1584.44
537.606	1515.44
537.705	1658.44
537.805	1549.44
537.904	1496.44
538.003	1633.44
538.102	1616.44
538.202	1563.44
538.301	1673.44
538.4	1601.44
538.499	1550.44
538.599	1601.44
