Data from sinsal_HRC06701__2__63.txt Node

Date: Thu Apr 18 01:41:05 CDT 2024
User: Estudiantes 2
Spectrometer: HR+C0670
Trigger mode: 4
Integration Time (sec): 1.000000E0
Scans to average: 1
Electric dark correction enabled: true
Nonlinearity correction enabled: false
Boxcar width: 0
XAxis mode: Wavelengths
Number of Pixels in Spectrum: 2048
>>>>>Begin Spectral Data<<<<<
407.81	-105
407.921	-105
408.032	-105
408.143	-122
408.254	-85
408.365	21
408.476	192
408.587	-10
408.699	-6
408.81	-23
408.921	-27
409.032	7
409.143	24
409.254	-7
409.365	80
409.476	-26
409.587	1
409.698	86
409.809	47
409.92	-43
410.031	-23
410.142	31
410.253	-2
410.364	17
410.475	1744
410.585	8288
410.696	8751
410.807	8697
410.918	8697
411.029	8765
411.14	8870
411.251	8760
411.362	8852
411.472	9027
411.583	8896
411.694	9004
411.805	8992
411.916	9120
412.026	9017
412.137	8932
412.248	9152
412.359	8904
412.47	8745
412.58	8728
412.691	8976
412.802	8858
412.912	8812
413.023	8827
413.134	8704
413.245	8714
413.355	8851
413.466	8681
413.577	8867
413.687	8914
413.798	8742
413.909	8906
414.019	8900
414.13	8918
414.24	8815
414.351	8954
414.462	9167
414.572	9014
414.683	8890
414.793	8932
414.904	9201
415.014	8834
415.125	8846
415.235	8861
415.346	8889
415.456	8963
415.567	8814
415.677	8657
415.788	8829
415.898	8794
416.009	8716
416.119	8855
416.23	8827
416.34	8742
416.45	8867
416.561	9702
416.671	8895
416.782	8755
416.892	8938
417.002	8882
417.113	9022
417.223	9028
417.333	8938
417.444	9070
417.554	9128
417.664	9240
417.775	9028
417.885	9353
417.995	9292
418.106	9478
418.216	9461
418.326	9684
418.436	9770
418.547	9764
418.657	9705
418.767	9919
418.877	9930
418.987	10145
419.098	9950
419.208	10065
419.318	10068
419.428	10096
419.538	9949
419.648	10178
419.759	10195
419.869	9992
419.979	10110
420.089	10126
420.199	10009
420.309	10061
420.419	10001
420.529	10098
420.639	10628
420.749	10195
420.859	10330
420.969	10471
421.079	10644
421.189	10422
421.299	10259
421.409	10321
421.519	10467
421.629	10630
421.739	10641
421.849	10765
421.959	10777
422.069	10640
422.179	10774
422.289	10929
422.399	11118
422.509	11201
422.619	13695
422.729	11398
422.838	11294
422.948	11529
423.058	11462
423.168	11530
423.278	11668
423.388	11814
423.498	12118
423.607	11981
423.717	12326
423.827	12394
423.937	12346
424.046	12345
424.156	12480
424.266	12417
424.376	12709
424.485	12632
424.595	12656
424.705	12620
424.815	12592
424.924	13155
425.034	12771
425.144	12739
425.253	12717
425.363	13042
425.473	13040
425.582	12723
425.692	13232
425.801	13002
425.911	13070
426.021	13206
426.13	13557
426.24	13405
426.349	13617
426.459	13540
426.568	13558
426.678	13714
426.787	13807
426.897	13525
427.006	13839
427.116	13904
427.225	14012
427.335	14136
427.444	14090
427.554	13998
427.663	14186
427.773	14185
427.882	14472
427.992	14472
428.101	14440
428.21	14503
428.32	14503
428.429	14503
428.539	14503
428.648	14503
428.757	14503
428.867	14503
428.976	14503
429.085	14503
429.195	14503
429.304	14503
429.413	14503
429.523	14503
429.632	14503
429.741	14503
429.85	14503
429.96	14503
430.069	14503
430.178	14503
430.287	14503
430.397	14503
430.506	14503
430.615	14503
430.724	14503
430.833	14503
430.943	14503
431.052	14503
431.161	14503
431.27	14503
431.379	14503
431.488	14503
431.597	14503
431.706	14503
431.816	14503
431.925	14503
432.034	14503
432.143	14503
432.252	14503
432.361	14503
432.47	14503
432.579	14503
432.688	14503
432.797	14503
432.906	14503
433.015	14503
433.124	14503
433.233	14503
433.342	14503
433.451	14503
433.56	14503
433.669	14503
433.778	14503
433.886	14503
433.995	14503
434.104	14503
434.213	14503
434.322	14503
434.431	14503
434.54	14503
434.649	14503
434.757	14503
434.866	14503
434.975	14503
435.084	14503
435.193	14503
435.301	14503
435.41	14503
435.519	14503
435.628	14503
435.737	14503
435.845	14503
435.954	14503
436.063	14503
436.171	14503
436.28	14503
436.389	14503
436.498	14503
436.606	14503
436.715	14503
436.823	14503
436.932	14503
437.041	14503
437.149	14503
437.258	14503
437.367	14503
437.475	14503
437.584	14503
437.692	14503
437.801	14503
437.91	14503
438.018	14503
438.127	14503
438.235	14503
438.344	14503
438.452	14503
438.561	14503
438.669	14503
438.778	14503
438.886	14503
438.995	14317
439.103	14503
439.212	14503
439.32	14503
439.428	14503
439.537	14503
439.645	14503
439.754	14503
439.862	14503
439.97	14503
440.079	14503
440.187	14503
440.295	14503
440.404	14503
440.512	14503
440.62	14503
440.729	14503
440.837	14503
440.945	14503
441.054	14503
441.162	14503
441.27	14503
441.378	14503
441.487	14503
441.595	14503
441.703	14503
441.811	14503
441.92	14503
442.028	14503
442.136	14503
442.244	14503
442.352	14503
442.461	14503
442.569	14503
442.677	14503
442.785	14503
442.893	14503
443.001	14503
443.109	14503
443.217	14503
443.325	14503
443.434	14503
443.542	14503
443.65	14503
443.758	14503
443.866	14503
443.974	14503
444.082	14503
444.19	14503
444.298	14503
444.406	14503
444.514	14503
444.622	14503
444.73	14503
444.838	14503
444.946	14503
445.054	14503
445.161	14503
445.269	14503
445.377	14503
445.485	14503
445.593	14503
445.701	14503
445.809	14503
445.917	14503
446.025	14503
446.132	14503
446.24	14503
446.348	14503
446.456	14503
446.564	14503
446.671	14503
446.779	14503
446.887	14503
446.995	14503
447.102	14503
447.21	14503
447.318	14503
447.426	14503
447.533	14503
447.641	14503
447.749	14503
447.856	14503
447.964	14503
448.072	14503
448.179	14503
448.287	14503
448.395	14503
448.502	14503
448.61	14503
448.718	14503
448.825	14503
448.933	14503
449.04	14503
449.148	14503
449.256	14503
449.363	14503
449.471	14503
449.578	14503
449.686	14503
449.793	14503
449.901	14503
450.008	14503
450.116	14503
450.223	14503
450.331	14503
450.438	14503
450.546	14503
450.653	14503
450.76	14503
450.868	14503
450.975	14503
451.083	14503
451.19	14503
451.297	14503
451.405	14503
451.512	14503
451.619	14503
451.727	14503
451.834	14503
451.941	14503
452.049	14503
452.156	14503
452.263	14503
452.371	14503
452.478	14503
452.585	14503
452.692	14503
452.8	14503
452.907	14503
453.014	14503
453.121	14503
453.229	14503
453.336	14503
453.443	14503
453.55	14503
453.657	14503
453.765	14503
453.872	14503
453.979	14503
454.086	14503
454.193	14503
454.3	14503
454.407	14503
454.514	14503
454.621	14503
454.729	14503
454.836	14503
454.943	14503
455.05	14503
455.157	14503
455.264	14503
455.371	14503
455.478	14503
455.585	14503
455.692	14503
455.799	14503
455.906	14503
456.013	14503
456.12	14503
456.227	14503
456.334	14503
456.44	14503
456.547	14503
456.654	14503
456.761	14503
456.868	14503
456.975	14503
457.082	14503
457.189	14503
457.296	14503
457.402	14503
457.509	14503
457.616	14503
457.723	14503
457.83	14503
457.936	14503
458.043	14503
458.15	14503
458.257	14503
458.363	14503
458.47	14503
458.577	14503
458.684	14503
458.79	14503
458.897	14503
459.004	14503
459.11	14503
459.217	14503
459.324	14503
459.43	14503
459.537	14503
459.644	14503
459.75	14503
459.857	14503
459.964	14503
460.07	14503
460.177	14503
460.283	14503
460.39	14503
460.496	14503
460.603	14503
460.71	14503
460.816	14503
460.923	14503
461.029	14503
461.136	14503
461.242	14503
461.349	14503
461.455	14503
461.562	14503
461.668	14503
461.774	14503
461.881	14503
461.987	14503
462.094	14503
462.2	14503
462.307	14503
462.413	14503
462.519	14503
462.626	14503
462.732	14503
462.838	14503
462.945	14503
463.051	14503
463.157	14503
463.264	14503
463.37	14503
463.476	14503
463.583	14503
463.689	14503
463.795	14503
463.901	14503
464.008	14503
464.114	14503
464.22	14503
464.326	14503
464.433	14503
464.539	14503
464.645	14503
464.751	14503
464.857	14503
464.963	14503
465.07	14503
465.176	14503
465.282	14503
465.388	14503
465.494	14503
465.6	14503
465.706	14503
465.812	14503
465.918	14503
466.024	14503
466.131	14503
466.237	14503
466.343	14503
466.449	14503
466.555	14503
466.661	14503
466.767	14503
466.873	14503
466.979	14503
467.085	14503
467.191	14503
467.296	14503
467.402	14503
467.508	14503
467.614	14503
467.72	14503
467.826	14503
467.932	14503
468.038	14503
468.144	14503
468.25	14503
468.355	14503
468.461	14503
468.567	14503
468.673	14503
468.779	14503
468.885	14503
468.99	14503
469.096	14503
469.202	14503
469.308	14503
469.413	14503
469.519	14503
469.625	14503
469.731	14503
469.836	14503
469.942	14503
470.048	14503
470.153	14503
470.259	14503
470.365	14503
470.47	14503
470.576	14503
470.682	14503
470.787	14503
470.893	14503
470.999	14503
471.104	14503
471.21	14503
471.315	14503
471.421	14503
471.527	14503
471.632	14503
471.738	14503
471.843	14503
471.949	14503
472.054	14503
472.16	14503
472.265	14503
472.371	14503
472.476	14503
472.582	14503
472.687	14503
472.793	14503
472.898	14503
473.003	14503
473.109	14503
473.214	14503
473.32	14503
473.425	14503
473.53	14503
473.636	14503
473.741	14503
473.847	14503
473.952	14503
474.057	14503
474.163	14503
474.268	14503
474.373	14503
474.478	14503
474.584	14503
474.689	14503
474.794	14503
474.9	14503
475.005	14503
475.11	14503
475.215	14503
475.321	14503
475.426	14503
475.531	14503
475.636	14503
475.741	14503
475.846	14503
475.952	14503
476.057	14503
476.162	14503
476.267	14503
476.372	14503
476.477	14503
476.582	14503
476.687	14503
476.793	14503
476.898	14503
477.003	14503
477.108	14503
477.213	14503
477.318	14503
477.423	14503
477.528	14503
477.633	14503
477.738	14503
477.843	14503
477.948	14503
478.053	14503
478.158	14503
478.263	14503
478.368	14503
478.473	14503
478.578	14503
478.682	14503
478.787	14503
478.892	14503
478.997	14503
479.102	14503
479.207	14503
479.312	14503
479.417	14503
479.521	14503
479.626	14503
479.731	14503
479.836	14503
479.941	14503
480.045	14503
480.15	14503
480.255	14503
480.36	14503
480.465	14503
480.569	14503
480.674	14503
480.779	14503
480.883	14503
480.988	14503
481.093	14503
481.197	14503
481.302	14503
481.407	14503
481.511	14503
481.616	14503
481.721	14503
481.825	14503
481.93	14503
482.035	14503
482.139	14503
482.244	14503
482.348	14503
482.453	14503
482.557	14503
482.662	14503
482.767	14503
482.871	14503
482.976	14503
483.08	14503
483.185	14503
483.289	14503
483.394	14503
483.498	14503
483.603	14503
483.707	14503
483.811	14503
483.916	14503
484.02	14503
484.125	14503
484.229	14503
484.333	14503
484.438	14503
484.542	14503
484.647	14503
484.751	14503
484.855	14503
484.96	14503
485.064	14503
485.168	14503
485.273	14503
485.377	14503
485.481	14503
485.585	14503
485.69	14503
485.794	14503
485.898	14503
486.002	14503
486.107	14503
486.211	14503
486.315	14503
486.419	14503
486.524	14503
486.628	14503
486.732	14503
486.836	14503
486.94	14503
487.044	14503
487.148	14503
487.253	14503
487.357	14503
487.461	14503
487.565	14503
487.669	14503
487.773	14503
487.877	14503
487.981	14503
488.085	14503
488.189	14503
488.293	14503
488.397	14503
488.501	14503
488.605	14503
488.709	14503
488.813	14503
488.917	14503
489.021	14503
489.125	14503
489.229	14503
489.333	14503
489.437	14503
489.541	14503
489.645	14503
489.749	14503
489.853	14503
489.956	14503
490.06	14503
490.164	14503
490.268	14503
490.372	14503
490.476	14503
490.579	14503
490.683	14503
490.787	14503
490.891	14503
490.995	14503
491.098	14503
491.202	14503
491.306	14503
491.41	14503
491.513	14503
491.617	14503
491.721	14503
491.824	14503
491.928	14503
492.032	14503
492.136	14503
492.239	14503
492.343	14503
492.446	14503
492.55	14503
492.654	14503
492.757	14503
492.861	14503
492.965	14503
493.068	14503
493.172	14503
493.275	14503
493.379	14503
493.482	14503
493.586	14503
493.689	14503
493.793	14503
493.896	14503
494	14503
494.103	14503
494.207	14503
494.31	14503
494.414	14503
494.517	14503
494.621	14503
494.724	14503
494.828	14503
494.931	14503
495.034	14503
495.138	14503
495.241	14503
495.345	14503
495.448	14503
495.551	14503
495.655	14503
495.758	14503
495.861	14503
495.965	14503
496.068	14503
496.171	14503
496.274	14503
496.378	14503
496.481	14503
496.584	14503
496.687	14503
496.791	14503
496.894	14503
496.997	14503
497.1	14503
497.204	14503
497.307	14503
497.41	14503
497.513	14503
497.616	14503
497.719	14503
497.823	14503
497.926	14503
498.029	14503
498.132	14503
498.235	14503
498.338	14503
498.441	14503
498.544	14503
498.647	14503
498.75	14503
498.853	14503
498.956	14503
499.059	14503
499.163	14503
499.266	14503
499.369	14503
499.471	14503
499.574	14503
499.677	14503
499.78	14503
499.883	14503
499.986	14503
500.089	14503
500.192	14503
500.295	14503
500.398	14503
500.501	14503
500.604	14503
500.707	14503
500.809	14503
500.912	14503
501.015	14503
501.118	14503
501.221	14503
501.324	14503
501.426	14503
501.529	14503
501.632	14503
501.735	14503
501.837	14503
501.94	14503
502.043	14503
502.146	14503
502.248	14503
502.351	14503
502.454	14503
502.557	14503
502.659	14503
502.762	14503
502.865	14503
502.967	14503
503.07	14503
503.173	14503
503.275	14503
503.378	14503
503.48	14503
503.583	14503
503.686	14503
503.788	14503
503.891	14503
503.993	14503
504.096	14503
504.198	14503
504.301	14503
504.403	14503
504.506	14503
504.608	14503
504.711	14503
504.813	14503
504.916	14503
505.018	14503
505.121	14503
505.223	14503
505.326	14503
505.428	14503
505.531	14503
505.633	14503
505.735	14503
505.838	14503
505.94	14503
506.042	14503
506.145	14503
506.247	14503
506.35	14503
506.452	14503
506.554	14503
506.656	14503
506.759	14503
506.861	14503
506.963	14503
507.066	14503
507.168	14503
507.27	14503
507.372	14503
507.475	14503
507.577	14503
507.679	14503
507.781	14503
507.883	14503
507.986	14503
508.088	14503
508.19	14503
508.292	14503
508.394	14503
508.496	14503
508.598	14503
508.701	14503
508.803	14503
508.905	14503
509.007	14503
509.109	14503
509.211	14503
509.313	14503
509.415	14503
509.517	14503
509.619	14503
509.721	14503
509.823	14503
509.925	14503
510.027	14503
510.129	14503
510.231	14503
510.333	14503
510.435	14503
510.537	14503
510.639	14503
510.741	14503
510.843	14503
510.945	14503
511.047	14503
511.148	14503
511.25	14503
511.352	14503
511.454	14503
511.556	14503
511.658	14503
511.76	14503
511.861	14503
511.963	14503
512.065	14503
512.167	14503
512.268	14503
512.37	14503
512.472	14503
512.574	14503
512.676	14503
512.777	14503
512.879	14503
512.981	14503
513.082	14503
513.184	14503
513.286	14503
513.387	14503
513.489	14503
513.591	14503
513.692	14503
513.794	14503
513.896	14503
513.997	14503
514.099	14503
514.2	14503
514.302	14503
514.404	14503
514.505	14503
514.607	14503
514.708	14503
514.81	14503
514.911	14503
515.013	14503
515.114	14503
515.216	14503
515.317	14503
515.419	14503
515.52	14503
515.622	14503
515.723	14503
515.825	14503
515.926	14503
516.027	14503
516.129	14503
516.23	14503
516.332	14503
516.433	14503
516.534	14503
516.636	14503
516.737	14503
516.838	14503
516.94	14503
517.041	14503
517.142	14503
517.244	14503
517.345	14503
517.446	14503
517.547	14503
517.649	14503
517.75	14503
517.851	14503
517.952	14503
518.054	14503
518.155	14503
518.256	14503
518.357	14503
518.458	14503
518.56	14503
518.661	14503
518.762	14503
518.863	14503
518.964	14503
519.065	14503
519.166	14503
519.268	14503
519.369	14503
519.47	14503
519.571	14503
519.672	14503
519.773	14503
519.874	14503
519.975	14503
520.076	14503
520.177	14503
520.278	14503
520.379	14503
520.48	14503
520.581	14503
520.682	14503
520.783	14503
520.884	14503
520.985	14503
521.086	14503
521.187	14503
521.288	14503
521.389	14503
521.489	14503
521.59	14503
521.691	14503
521.792	14503
521.893	14503
521.994	14503
522.095	14503
522.195	14503
522.296	14503
522.397	14503
522.498	14503
522.599	14503
522.699	14503
522.8	14503
522.901	14503
523.002	14503
523.102	14503
523.203	14503
523.304	14503
523.405	14503
523.505	14503
523.606	14503
523.707	14503
523.807	14503
523.908	14503
524.009	14503
524.109	14503
524.21	14503
524.31	14503
524.411	14503
524.512	14503
524.612	14503
524.713	14503
524.813	14503
524.914	14503
525.014	14503
525.115	14503
525.216	14503
525.316	14503
525.417	14503
525.517	14503
525.618	14503
525.718	14503
525.819	14503
525.919	14503
526.019	14503
526.12	14503
526.22	14503
526.321	14503
526.421	14503
526.522	14503
526.622	14503
526.722	14503
526.823	14503
526.923	14503
527.023	14503
527.124	14503
527.224	14503
527.324	14503
527.425	14503
527.525	14503
527.625	14503
527.726	14503
527.826	14503
527.926	14503
528.026	14503
528.127	14503
528.227	14503
528.327	14503
528.427	14503
528.528	14503
528.628	14503
528.728	14503
528.828	14503
528.928	14503
529.029	14503
529.129	14503
529.229	14503
529.329	14503
529.429	14503
529.529	14503
529.629	14503
529.729	14503
529.829	14503
529.93	14503
530.03	14503
530.13	14503
530.23	14503
530.33	14503
530.43	14503
530.53	14503
530.63	14503
530.73	14503
530.83	14503
530.93	14503
531.03	14503
531.13	14503
531.23	14503
531.33	14503
531.429	14503
531.529	14503
531.629	14503
531.729	14503
531.829	14503
531.929	14503
532.029	14503
532.129	14503
532.229	14503
532.328	14503
532.428	14503
532.528	14503
532.628	14503
532.728	14503
532.827	14503
532.927	14503
533.027	14503
533.127	14503
533.227	14503
533.326	14503
533.426	14503
533.526	14503
533.625	14503
533.725	14503
533.825	14503
533.924	14503
534.024	14503
534.124	14503
534.223	14503
534.323	14503
534.423	14503
534.522	14442
534.622	14239
534.722	14449
534.821	14370
534.921	14285
535.02	14130
535.12	14244
535.219	14178
535.319	14075
535.419	14126
535.518	13822
535.618	13967
535.717	13865
535.817	13596
535.916	13602
536.016	13614
536.115	13297
536.215	13354
536.314	13221
536.413	13241
536.513	13243
536.612	13200
536.712	13066
536.811	13128
536.91	12859
537.01	12981
537.109	13070
537.209	12819
537.308	12825
537.407	12860
537.507	12909
537.606	12721
537.705	12816
537.805	12663
537.904	12610
538.003	12585
538.102	12723
538.202	12644
538.301	12645
538.4	12512
538.499	12347
538.599	12396
538.698	12497
538.797	12354
538.896	12383
538.995	12337
539.095	12184
539.194	12350
539.293	12109
539.392	12089
539.491	12034
539.59	12040
539.689	12109
539.789	11983
539.888	11828
539.987	11766
540.086	11830
540.185	11754
540.284	11937
540.383	11801
540.482	11739
540.581	11865
540.68	11790
540.779	11764
540.878	11589
540.977	11641
541.076	11697
541.175	11585
541.274	11741
541.373	11697
541.472	11678
541.571	11408
541.67	12529
541.769	11431
541.868	11584
541.966	11430
542.065	11386
542.164	11309
542.263	11156
542.362	11210
542.461	11408
542.56	11081
542.658	11136
542.757	11055
542.856	11109
542.955	11110
543.054	11092
543.152	11270
543.251	10915
543.35	11182
543.449	11046
543.547	11080
543.646	11272
543.745	11156
543.843	11067
543.942	11094
544.041	11142
544.14	11161
544.238	10944
544.337	11390
544.436	11086
544.534	11253
544.633	11149
544.731	11270
544.83	11143
544.929	11127
545.027	11146
545.126	11190
545.224	11189
545.323	11151
545.421	11212
545.52	11261
545.619	11221
545.717	11112
545.816	11119
545.914	11131
546.013	11342
546.111	11267
546.209	11088
546.308	10970
546.406	10925
546.505	11242
546.603	11070
546.702	10915
546.8	10910
546.899	10922
546.997	11206
547.095	11044
547.194	11000
547.292	11040
547.39	11062
547.489	10975
547.587	11434
547.685	10987
547.784	11229
547.882	11294
547.98	11034
548.079	10973
548.177	10996
548.275	11044
548.373	11180
548.472	11059
548.57	11026
548.668	11193
548.766	10855
548.864	11089
548.963	11036
549.061	11138
549.159	11124
549.257	11120
549.355	11137
549.454	11309
549.552	11377
549.65	11253
549.748	11214
549.846	11258
549.944	10993
550.042	11001
550.14	11207
550.238	11015
550.336	10923
550.434	10766
550.532	10685
550.631	10913
550.729	10979
550.827	10953
550.925	10847
551.023	10761
551.121	10788
551.218	10779
551.316	10660
551.414	10942
551.512	10955
551.61	10980
551.708	11020
551.806	10969
551.904	11006
552.002	11144
552.1	11165
552.198	11232
552.296	11416
552.393	11604
552.491	11672
552.589	11746
552.687	11859
552.785	11759
552.882	11998
552.98	12238
553.078	12143
553.176	12044
553.274	11923
553.371	11998
553.469	11969
553.567	11918
553.665	11815
553.762	12026
553.86	11775
553.958	11612
554.055	11470
554.153	11411
554.251	11457
554.348	11216
554.446	11059
554.544	11073
554.641	11269
554.739	10922
554.837	10894
554.934	10843
555.032	10826
555.129	10790
555.227	11134
555.324	14503
555.422	10868
555.519	10504
555.617	10341
555.715	10331
555.812	11902
555.91	10173
556.007	10191
556.105	10317
556.202	10231
