Data from sinsal_HRC06701__35__96.txt Node

Date: Thu Apr 18 01:41:38 CDT 2024
User: Estudiantes 2
Spectrometer: HR+C0670
Trigger mode: 4
Integration Time (sec): 1.000000E0
Scans to average: 1
Electric dark correction enabled: true
Nonlinearity correction enabled: false
Boxcar width: 0
XAxis mode: Wavelengths
Number of Pixels in Spectrum: 2048
>>>>>Begin Spectral Data<<<<<
407.81	-111.12
407.921	-111.12
408.032	-111.12
408.143	-103.12
408.254	-84.12
408.365	29.88
408.476	190.88
408.587	3.88
408.699	-15.12
408.81	-22.12
408.921	-62.12
409.032	-28.12
409.143	34.88
409.254	25.88
409.365	89.88
409.476	-45.12
409.587	-12.12
409.698	107.88
409.809	69.88
409.92	-32.12
410.031	16.88
410.142	30.88
410.253	17.88
410.364	59.88
410.475	60.88
410.585	382.88
410.696	391.88
410.807	364.88
410.918	336.88
411.029	401.88
411.14	426.88
411.251	362.88
411.362	437.88
411.472	461.88
411.583	397.88
411.694	459.88
411.805	434.88
411.916	402.88
412.026	411.88
412.137	403.88
412.248	419.88
412.359	377.88
412.47	334.88
412.58	409.88
412.691	416.88
412.802	409.88
412.912	400.88
413.023	375.88
413.134	362.88
413.245	486.88
413.355	364.88
413.466	353.88
413.577	404.88
413.687	477.88
413.798	312.88
413.909	430.88
414.019	412.88
414.13	404.88
414.24	332.88
414.351	474.88
414.462	529.88
414.572	443.88
414.683	473.88
414.793	376.88
414.904	653.88
415.014	412.88
415.125	376.88
415.235	374.88
415.346	475.88
415.456	537.88
415.567	382.88
415.677	391.88
415.788	489.88
415.898	388.88
416.009	372.88
416.119	458.88
416.23	318.88
416.34	381.88
416.45	423.88
416.561	951.88
416.671	501.88
416.782	370.88
416.892	398.88
417.002	412.88
417.113	411.88
417.223	460.88
417.333	356.88
417.444	375.88
417.554	451.88
417.664	447.88
417.775	345.88
417.885	431.88
417.995	434.88
418.106	488.88
418.216	483.88
418.326	466.88
418.436	407.88
418.547	383.88
418.657	399.88
418.767	475.88
418.877	428.88
418.987	453.88
419.098	396.88
419.208	436.88
419.318	532.88
419.428	475.88
419.538	443.88
419.648	476.88
419.759	474.88
419.869	498.88
419.979	448.88
420.089	480.88
420.199	387.88
420.309	454.88
420.419	547.88
420.529	446.88
420.639	779.88
420.749	547.88
420.859	531.88
420.969	472.88
421.079	681.88
421.189	554.88
421.299	459.88
421.409	449.88
421.519	543.88
421.629	551.88
421.739	460.88
421.849	488.88
421.959	444.88
422.069	505.88
422.179	489.88
422.289	442.88
422.399	516.88
422.509	573.88
422.619	3199.88
422.729	805.88
422.838	461.88
422.948	538.88
423.058	466.88
423.168	452.88
423.278	557.88
423.388	503.88
423.498	536.88
423.607	571.88
423.717	701.88
423.827	701.88
423.937	542.88
424.046	577.88
424.156	609.88
424.266	525.88
424.376	721.88
424.485	612.88
424.595	553.88
424.705	589.88
424.815	524.88
424.924	852.88
425.034	641.88
425.144	491.88
425.253	571.88
425.363	624.88
425.473	598.88
425.582	520.88
425.692	544.88
425.801	522.88
425.911	697.88
426.021	618.88
426.13	726.88
426.24	753.88
426.349	659.88
426.459	652.88
426.568	555.88
426.678	675.88
426.787	678.88
426.897	588.88
427.006	617.88
427.116	708.88
427.225	581.88
427.335	644.88
427.444	646.88
427.554	710.88
427.663	635.88
427.773	592.88
427.882	701.88
427.992	553.88
428.101	637.88
428.21	648.88
428.32	671.88
428.429	625.88
428.539	856.88
428.648	655.88
428.757	667.88
428.867	682.88
428.976	783.88
429.085	695.88
429.195	605.88
429.304	665.88
429.413	674.88
429.523	721.88
429.632	769.88
429.741	723.88
429.85	677.88
429.96	795.88
430.069	685.88
430.178	683.88
430.287	952.88
430.397	776.88
430.506	648.88
430.615	705.88
430.724	722.88
430.833	774.88
430.943	736.88
431.052	749.88
431.161	683.88
431.27	712.88
431.379	727.88
431.488	787.88
431.597	780.88
431.706	791.88
431.816	749.88
431.925	723.88
432.034	705.88
432.143	814.88
432.252	739.88
432.361	748.88
432.47	798.88
432.579	721.88
432.688	779.88
432.797	816.88
432.906	705.88
433.015	773.88
433.124	1114.88
433.233	780.88
433.342	776.88
433.451	771.88
433.56	755.88
433.669	783.88
433.778	736.88
433.886	863.88
433.995	759.88
434.104	899.88
434.213	880.88
434.322	751.88
434.431	828.88
434.54	836.88
434.649	947.88
434.757	800.88
434.866	795.88
434.975	863.88
435.084	786.88
435.193	848.88
435.301	1028.88
435.41	1067.88
435.519	1134.88
435.628	816.88
435.737	739.88
435.845	703.88
435.954	739.88
436.063	706.88
436.171	734.88
436.28	737.88
436.389	846.88
436.498	706.88
436.606	708.88
436.715	880.88
436.823	730.88
436.932	658.88
437.041	737.88
437.149	759.88
437.258	689.88
437.367	706.88
437.475	663.88
437.584	860.88
437.692	722.88
437.801	1893.88
437.91	805.88
438.018	656.88
438.127	687.88
438.235	715.88
438.344	657.88
438.452	736.88
438.561	657.88
438.669	638.88
438.778	696.88
438.886	648.88
438.995	645.88
439.103	712.88
439.212	685.88
439.32	671.88
439.428	628.88
439.537	622.88
439.645	679.88
439.754	709.88
439.862	698.88
439.97	719.88
440.079	702.88
440.187	679.88
440.295	725.88
440.404	646.88
440.512	700.88
440.62	712.88
440.729	734.88
440.837	731.88
440.945	1256.88
441.054	771.88
441.162	691.88
441.27	825.88
441.378	722.88
441.487	670.88
441.595	1042.88
441.703	771.88
441.811	758.88
441.92	747.88
442.028	653.88
442.136	689.88
442.244	735.88
442.352	717.88
442.461	632.88
442.569	640.88
442.677	672.88
442.785	706.88
442.893	711.88
443.001	717.88
443.109	667.88
443.217	618.88
443.325	682.88
443.434	1079.88
443.542	879.88
443.65	727.88
443.758	801.88
443.866	671.88
443.974	937.88
444.082	771.88
444.19	768.88
444.298	724.88
444.406	849.88
444.514	794.88
444.622	775.88
444.73	827.88
444.838	778.88
444.946	815.88
445.054	752.88
445.161	766.88
445.269	663.88
445.377	738.88
445.485	767.88
445.593	744.88
445.701	867.88
445.809	818.88
445.917	739.88
446.025	633.88
446.132	833.88
446.24	770.88
446.348	737.88
446.456	729.88
446.564	714.88
446.671	717.88
446.779	742.88
446.887	662.88
446.995	681.88
447.102	739.88
447.21	801.88
447.318	728.88
447.426	703.88
447.533	934.88
447.641	1667.88
447.749	805.88
447.856	728.88
447.964	777.88
448.072	831.88
448.179	739.88
448.287	760.88
448.395	727.88
448.502	668.88
448.61	741.88
448.718	689.88
448.825	787.88
448.933	782.88
449.04	702.88
449.148	747.88
449.256	801.88
449.363	762.88
449.471	748.88
449.578	810.88
449.686	701.88
449.793	819.88
449.901	780.88
450.008	820.88
450.116	800.88
450.223	718.88
450.331	872.88
450.438	751.88
450.546	854.88
450.653	896.88
450.76	808.88
450.868	844.88
450.975	1012.88
451.083	835.88
451.19	902.88
451.297	878.88
451.405	883.88
451.512	804.88
451.619	880.88
451.727	966.88
451.834	867.88
451.941	860.88
452.049	887.88
452.156	856.88
452.263	887.88
452.371	912.88
452.478	881.88
452.585	981.88
452.692	853.88
452.8	901.88
452.907	1011.88
453.014	930.88
453.121	926.88
453.229	917.88
453.336	986.88
453.443	1040.88
453.55	873.88
453.657	960.88
453.765	1040.88
453.872	940.88
453.979	979.88
454.086	962.88
454.193	977.88
454.3	924.88
454.407	1065.88
454.514	1105.88
454.621	932.88
454.729	945.88
454.836	1011.88
454.943	985.88
455.05	1062.88
455.157	1088.88
455.264	992.88
455.371	977.88
455.478	1016.88
455.585	1994.88
455.692	1097.88
455.799	1130.88
455.906	966.88
456.013	970.88
456.12	955.88
456.227	1053.88
456.334	1018.88
456.44	1085.88
456.547	1057.88
456.654	940.88
456.761	1013.88
456.868	1120.88
456.975	1091.88
457.082	968.88
457.189	1012.88
457.296	1069.88
457.402	1010.88
457.509	1044.88
457.616	1115.88
457.723	1150.88
457.83	1065.88
457.936	1062.88
458.043	1234.88
458.15	1091.88
458.257	1177.88
458.363	1094.88
458.47	1050.88
458.577	1198.88
458.684	1155.88
458.79	1175.88
458.897	1205.88
459.004	1243.88
459.11	1129.88
459.217	1161.88
459.324	1297.88
459.43	1283.88
459.537	1411.88
459.644	1311.88
459.75	1195.88
459.857	1468.88
459.964	1296.88
460.07	1269.88
460.177	1215.88
460.283	1299.88
460.39	1429.88
460.496	1297.88
460.603	1293.88
460.71	1316.88
460.816	1246.88
460.923	1232.88
461.029	1327.88
461.136	1284.88
461.242	1291.88
461.349	1327.88
461.455	1223.88
461.562	1464.88
461.668	1346.88
461.774	1293.88
461.881	1308.88
461.987	1330.88
462.094	1373.88
462.2	1346.88
462.307	1361.88
462.413	1323.88
462.519	1284.88
462.626	1519.88
462.732	1396.88
462.838	1382.88
462.945	1427.88
463.051	1436.88
463.157	1492.88
463.264	1428.88
463.37	1426.88
463.476	1421.88
463.583	1322.88
463.689	1378.88
463.795	1369.88
463.901	1382.88
464.008	1457.88
464.114	1377.88
464.22	1292.88
464.326	1372.88
464.433	1272.88
464.539	1255.88
464.645	1279.88
464.751	1403.88
464.857	1312.88
464.963	1176.88
465.07	1240.88
465.176	1287.88
465.282	1127.88
465.388	1248.88
465.494	1107.88
465.6	1045.88
465.706	1038.88
465.812	980.88
465.918	1119.88
466.024	1039.88
466.131	1171.88
466.237	1068.88
466.343	992.88
466.449	983.88
466.555	1047.88
466.661	946.88
466.767	990.88
466.873	1025.88
466.979	1087.88
467.085	975.88
467.191	1043.88
467.296	934.88
467.402	890.88
467.508	992.88
467.614	1081.88
467.72	932.88
467.826	922.88
467.932	1019.88
468.038	915.88
468.144	926.88
468.25	955.88
468.355	844.88
468.461	922.88
468.567	909.88
468.673	914.88
468.779	872.88
468.885	865.88
468.99	861.88
469.096	840.88
469.202	968.88
469.308	954.88
469.413	935.88
469.519	897.88
469.625	916.88
469.731	868.88
469.836	879.88
469.942	1074.88
470.048	924.88
470.153	915.88
470.259	1000.88
470.365	1015.88
470.47	943.88
470.576	931.88
470.682	938.88
470.787	875.88
470.893	824.88
470.999	908.88
471.104	853.88
471.21	784.88
471.315	813.88
471.421	795.88
471.527	934.88
471.632	967.88
471.738	864.88
471.843	800.88
471.949	835.88
472.054	862.88
472.16	768.88
472.265	812.88
472.371	823.88
472.476	837.88
472.582	872.88
472.687	837.88
472.793	737.88
472.898	789.88
473.003	803.88
473.109	740.88
473.214	702.88
473.32	787.88
473.425	860.88
473.53	740.88
473.636	780.88
473.741	808.88
473.847	755.88
473.952	797.88
474.057	876.88
474.163	815.88
474.268	773.88
474.373	939.88
474.478	730.88
474.584	745.88
474.689	828.88
474.794	814.88
474.9	986.88
475.005	766.88
475.11	965.88
475.215	772.88
475.321	776.88
475.426	949.88
475.531	878.88
475.636	730.88
475.741	786.88
475.846	894.88
475.952	944.88
476.057	861.88
476.162	853.88
476.267	946.88
476.372	1031.88
476.477	801.88
476.582	900.88
476.687	788.88
476.793	872.88
476.898	816.88
477.003	830.88
477.108	810.88
477.213	813.88
477.318	793.88
477.423	919.88
477.528	915.88
477.633	870.88
477.738	857.88
477.843	862.88
477.948	814.88
478.053	856.88
478.158	895.88
478.263	903.88
478.368	911.88
478.473	1006.88
478.578	914.88
478.682	824.88
478.787	1000.88
478.892	891.88
478.997	896.88
479.102	926.88
479.207	927.88
479.312	1032.88
479.417	916.88
479.521	936.88
479.626	979.88
479.731	918.88
479.836	936.88
479.941	972.88
480.045	996.88
480.15	1034.88
480.255	958.88
480.36	887.88
480.465	962.88
480.569	1132.88
480.674	910.88
480.779	874.88
480.883	975.88
480.988	1015.88
481.093	974.88
481.197	1025.88
481.302	968.88
481.407	1007.88
481.511	2425.88
481.616	1054.88
481.721	987.88
481.825	1102.88
481.93	977.88
482.035	916.88
482.139	1016.88
482.244	1002.88
482.348	1001.88
482.453	1011.88
482.557	1067.88
482.662	1043.88
482.767	992.88
482.871	1001.88
482.976	993.88
483.08	1005.88
483.185	1162.88
483.289	1012.88
483.394	1038.88
483.498	1065.88
483.603	1014.88
483.707	1051.88
483.811	1056.88
483.916	1164.88
484.02	1039.88
484.125	1135.88
484.229	1101.88
484.333	1107.88
484.438	1082.88
484.542	1080.88
484.647	1047.88
484.751	1027.88
484.855	1057.88
484.96	1064.88
485.064	1109.88
485.168	1083.88
485.273	1110.88
485.377	1085.88
485.481	1315.88
485.585	1151.88
485.69	1090.88
485.794	1192.88
485.898	1223.88
486.002	1159.88
486.107	1147.88
486.211	1178.88
486.315	1171.88
486.419	1189.88
486.524	1178.88
486.628	1201.88
486.732	1147.88
486.836	1163.88
486.94	1291.88
487.044	1146.88
487.148	1210.88
487.253	1199.88
487.357	1200.88
487.461	1318.88
487.565	1280.88
487.669	1177.88
487.773	1152.88
487.877	1278.88
487.981	1297.88
488.085	1239.88
488.189	1184.88
488.293	1352.88
488.397	1547.88
488.501	1225.88
488.605	1232.88
488.709	1215.88
488.813	1184.88
488.917	1171.88
489.021	1218.88
489.125	1383.88
489.229	1203.88
489.333	1371.88
489.437	1280.88
489.541	1288.88
489.645	1262.88
489.749	1254.88
489.853	1324.88
489.956	1274.88
490.06	1246.88
490.164	1272.88
490.268	1281.88
490.372	1327.88
490.476	1217.88
490.579	1203.88
490.683	1755.88
490.787	1329.88
490.891	1257.88
490.995	1298.88
491.098	1293.88
491.202	1260.88
491.306	1353.88
491.41	1272.88
491.513	1217.88
491.617	1309.88
491.721	1366.88
491.824	1454.88
491.928	1303.88
492.032	1486.88
492.136	1311.88
492.239	1250.88
492.343	1290.88
492.446	1545.88
492.55	1297.88
492.654	1283.88
492.757	1212.88
492.861	1318.88
492.965	1329.88
493.068	1293.88
493.172	1250.88
493.275	1263.88
493.379	1262.88
493.482	1299.88
493.586	1391.88
493.689	1483.88
493.793	1229.88
493.896	1318.88
494	1361.88
494.103	1381.88
494.207	1511.88
494.31	1591.88
494.414	1286.88
494.517	1293.88
494.621	1275.88
494.724	1287.88
494.828	1203.88
494.931	1209.88
495.034	1228.88
495.138	1345.88
495.241	1231.88
495.345	1908.88
495.448	1392.88
495.551	1241.88
495.655	1240.88
495.758	1162.88
495.861	1176.88
495.965	1254.88
496.068	1229.88
496.171	1301.88
496.274	1218.88
496.378	1224.88
496.481	1217.88
496.584	1244.88
496.687	1298.88
496.791	1176.88
496.894	1263.88
496.997	1288.88
497.1	1238.88
497.204	1249.88
497.307	1205.88
497.41	1359.88
497.513	1359.88
497.616	1249.88
497.719	1299.88
497.823	1227.88
497.926	1237.88
498.029	1305.88
498.132	1258.88
498.235	1313.88
498.338	1399.88
498.441	1420.88
498.544	1355.88
498.647	1427.88
498.75	1465.88
498.853	1511.88
498.956	1456.88
499.059	1641.88
499.163	1443.88
499.266	1536.88
499.369	1618.88
499.471	1549.88
499.574	1699.88
499.677	1786.88
499.78	1742.88
499.883	1775.88
499.986	1944.88
500.089	1916.88
500.192	1996.88
500.295	2056.88
500.398	2012.88
500.501	2032.88
500.604	1936.88
500.707	1881.88
500.809	1859.88
500.912	1794.88
501.015	1831.88
501.118	1643.88
501.221	1682.88
501.324	1574.88
501.426	1438.88
501.529	1436.88
501.632	1450.88
501.735	1298.88
501.837	1310.88
501.94	1242.88
502.043	1263.88
502.146	1311.88
502.248	1256.88
502.351	1213.88
502.454	1171.88
502.557	1178.88
502.659	1201.88
502.762	1103.88
502.865	1062.88
502.967	1123.88
503.07	1106.88
503.173	1174.88
503.275	1149.88
503.378	1138.88
503.48	1043.88
503.583	1189.88
503.686	1184.88
503.788	1240.88
503.891	1088.88
503.993	1288.88
504.096	1060.88
504.198	1083.88
504.301	1044.88
504.403	1091.88
504.506	1050.88
504.608	1039.88
504.711	1076.88
504.813	1107.88
504.916	1039.88
505.018	1036.88
505.121	938.88
505.223	1020.88
505.326	1031.88
505.428	1033.88
505.531	1018.88
505.633	1026.88
505.735	936.88
505.838	944.88
505.94	990.88
506.042	885.88
506.145	904.88
506.247	970.88
506.35	971.88
506.452	1011.88
506.554	999.88
506.656	1040.88
506.759	894.88
506.861	916.88
506.963	1003.88
507.066	935.88
507.168	994.88
507.27	1002.88
507.372	861.88
507.475	880.88
507.577	946.88
507.679	915.88
507.781	864.88
507.883	909.88
507.986	906.88
508.088	882.88
508.19	867.88
508.292	970.88
508.394	835.88
508.496	825.88
508.598	900.88
508.701	888.88
508.803	861.88
508.905	841.88
509.007	948.88
509.109	972.88
509.211	875.88
509.313	890.88
509.415	839.88
509.517	889.88
509.619	901.88
509.721	886.88
509.823	830.88
509.925	1022.88
510.027	863.88
510.129	868.88
510.231	892.88
510.333	862.88
510.435	828.88
510.537	913.88
510.639	928.88
510.741	858.88
510.843	908.88
510.945	930.88
511.047	903.88
511.148	917.88
511.25	840.88
511.352	873.88
511.454	822.88
511.556	948.88
511.658	847.88
511.76	931.88
511.861	974.88
511.963	876.88
512.065	834.88
512.167	856.88
512.268	1011.88
512.37	898.88
512.472	864.88
512.574	974.88
512.676	899.88
512.777	834.88
512.879	887.88
512.981	815.88
513.082	851.88
513.184	856.88
513.286	1264.88
513.387	949.88
513.489	976.88
513.591	981.88
513.692	978.88
513.794	906.88
513.896	896.88
513.997	820.88
514.099	805.88
514.2	929.88
514.302	926.88
514.404	851.88
514.505	815.88
514.607	956.88
514.708	876.88
514.81	954.88
514.911	979.88
515.013	919.88
515.114	950.88
515.216	945.88
515.317	958.88
515.419	908.88
515.52	1030.88
515.622	929.88
515.723	924.88
515.825	1065.88
515.926	1002.88
516.027	932.88
516.129	908.88
516.23	1015.88
516.332	981.88
516.433	966.88
516.534	1109.88
516.636	1004.88
516.737	962.88
516.838	1866.88
516.94	1123.88
517.041	1016.88
517.142	1185.88
517.244	1144.88
517.345	1076.88
517.446	1095.88
517.547	1219.88
517.649	1085.88
517.75	1106.88
517.851	1138.88
517.952	1298.88
518.054	1138.88
518.155	1234.88
518.256	1055.88
518.357	1146.88
518.458	1018.88
518.56	1028.88
518.661	1042.88
518.762	1056.88
518.863	1175.88
518.964	1133.88
519.065	1020.88
519.166	1066.88
519.268	985.88
519.369	1213.88
519.47	1075.88
519.571	1053.88
519.672	986.88
519.773	1022.88
519.874	1061.88
519.975	1035.88
520.076	1055.88
520.177	1115.88
520.278	999.88
520.379	1026.88
520.48	962.88
520.581	968.88
520.682	954.88
520.783	1041.88
520.884	1066.88
520.985	1050.88
521.086	1105.88
521.187	1071.88
521.288	988.88
521.389	1060.88
521.489	981.88
521.59	940.88
521.691	1057.88
521.792	1065.88
521.893	1135.88
521.994	1116.88
522.095	1126.88
522.195	1128.88
522.296	1141.88
522.397	1164.88
522.498	1074.88
522.599	1025.88
522.699	1082.88
522.8	1102.88
522.901	1068.88
523.002	1021.88
523.102	1235.88
523.203	1086.88
523.304	1211.88
523.405	1162.88
523.505	1083.88
523.606	1138.88
523.707	1170.88
523.807	1102.88
523.908	998.88
524.009	1155.88
524.109	1018.88
524.21	1015.88
524.31	1129.88
524.411	1210.88
524.512	1178.88
524.612	1066.88
524.713	1269.88
524.813	1047.88
524.914	1279.88
525.014	5700.88
525.115	1489.88
525.216	1038.88
525.316	1097.88
525.417	1114.88
525.517	1038.88
525.618	1094.88
525.718	1086.88
525.819	1029.88
525.919	1104.88
526.019	1069.88
526.12	1130.88
526.22	1037.88
526.321	1080.88
526.421	978.88
526.522	1036.88
526.622	1045.88
526.722	1071.88
526.823	1050.88
526.923	1104.88
527.023	1132.88
527.124	993.88
527.224	1104.88
527.324	1027.88
527.425	1095.88
527.525	1024.88
527.625	1085.88
527.726	1028.88
527.826	1136.88
527.926	1088.88
528.026	1095.88
528.127	1025.88
528.227	1094.88
528.327	1131.88
528.427	1066.88
528.528	1080.88
528.628	1180.88
528.728	1064.88
528.828	1095.88
528.928	1177.88
529.029	1064.88
529.129	1115.88
529.229	1118.88
529.329	1064.88
529.429	1168.88
529.529	1151.88
529.629	1109.88
529.729	1031.88
529.829	1259.88
529.93	1081.88
530.03	1091.88
530.13	1053.88
530.23	1071.88
530.33	1065.88
530.43	1026.88
530.53	1107.88
530.63	1066.88
530.73	971.88
530.83	1015.88
530.93	1009.88
531.03	994.88
531.13	1101.88
531.23	993.88
531.33	1004.88
531.429	1095.88
531.529	1086.88
531.629	1031.88
531.729	975.88
531.829	1002.88
531.929	1008.88
532.029	1024.88
532.129	1018.88
532.229	1019.88
532.328	1017.88
532.428	984.88
532.528	989.88
532.628	937.88
532.728	985.88
532.827	976.88
532.927	1045.88
533.027	973.88
533.127	1179.88
533.227	1044.88
533.326	1081.88
533.426	987.88
533.526	1025.88
533.625	1057.88
533.725	1274.88
533.825	1051.88
533.924	923.88
534.024	899.88
534.124	917.88
534.223	944.88
534.323	1264.88
534.423	1024.88
534.522	975.88
534.622	878.88
534.722	961.88
534.821	941.88
534.921	954.88
535.02	958.88
535.12	982.88
535.219	1024.88
535.319	956.88
535.419	973.88
535.518	962.88
535.618	939.88
535.717	1052.88
535.817	858.88
535.916	828.88
536.016	988.88
536.115	875.88
536.215	908.88
536.314	852.88
536.413	826.88
536.513	875.88
536.612	835.88
536.712	828.88
536.811	829.88
536.91	800.88
537.01	872.88
537.109	833.88
537.209	818.88
537.308	839.88
537.407	820.88
537.507	899.88
537.606	879.88
537.705	864.88
537.805	828.88
537.904	792.88
538.003	880.88
538.102	929.88
538.202	848.88
538.301	934.88
538.4	901.88
538.499	850.88
538.599	966.88
538.698	1005.88
538.797	862.88
538.896	931.88
538.995	884.88
539.095	833.88
539.194	1002.88
539.293	821.88
539.392	855.88
539.491	829.88
539.59	872.88
539.689	917.88
539.789	908.88
539.888	791.88
539.987	735.88
540.086	806.88
540.185	876.88
540.284	823.88
540.383	836.88
540.482	794.88
540.581	813.88
540.68	790.88
540.779	856.88
540.878	870.88
540.977	898.88
541.076	833.88
541.175	938.88
541.274	988.88
541.373	895.88
541.472	911.88
541.571	822.88
541.67	1886.88
541.769	1001.88
541.868	841.88
541.966	855.88
542.065	874.88
542.164	875.88
542.263	791.88
542.362	836.88
542.461	910.88
