Data from sinsal_HRC06701__50__111.txt Node

Date: Thu Apr 18 01:41:53 CDT 2024
User: Estudiantes 2
Spectrometer: HR+C0670
Trigger mode: 4
Integration Time (sec): 1.000000E0
Scans to average: 1
Electric dark correction enabled: true
Nonlinearity correction enabled: false
Boxcar width: 0
XAxis mode: Wavelengths
Number of Pixels in Spectrum: 2048
>>>>>Begin Spectral Data<<<<<
407.81	-104.25
407.921	-104.25
408.032	-104.25
408.143	-118.25
408.254	-128.25
408.365	9.75
408.476	188.75
408.587	20.75
408.699	-22.25
408.81	-17.25
408.921	-0.25
409.032	-51.25
409.143	55.75
409.254	49.75
409.365	38.75
409.476	-16.25
409.587	31.75
409.698	62.75
409.809	49.75
409.92	-23.25
410.031	-1.25
410.142	34.75
410.253	8.75
410.364	84.75
410.475	743.75
410.585	3539.75
410.696	3901.75
410.807	3737.75
410.918	3788.75
411.029	3913.75
411.14	3814.75
411.251	3784.75
411.362	3882.75
411.472	3976.75
411.583	3859.75
411.694	3925.75
411.805	3938.75
411.916	4022.75
412.026	4048.75
412.137	3997.75
412.248	3886.75
412.359	3913.75
412.47	3857.75
412.58	3698.75
412.691	3880.75
412.802	3782.75
412.912	3841.75
413.023	3832.75
413.134	3759.75
413.245	3946.75
413.355	3844.75
413.466	3821.75
413.577	3846.75
413.687	3803.75
413.798	3727.75
413.909	3996.75
414.019	3872.75
414.13	3893.75
414.24	3854.75
414.351	3903.75
414.462	4106.75
414.572	3903.75
414.683	3833.75
414.793	3919.75
414.904	4102.75
415.014	3835.75
415.125	3749.75
415.235	3911.75
415.346	4068.75
415.456	3973.75
415.567	3766.75
415.677	3763.75
415.788	3895.75
415.898	3790.75
416.009	3782.75
416.119	3868.75
416.23	3780.75
416.34	3698.75
416.45	3806.75
416.561	4225.75
416.671	3894.75
416.782	3864.75
416.892	3839.75
417.002	3876.75
417.113	4061.75
417.223	3894.75
417.333	3837.75
417.444	3919.75
417.554	4055.75
417.664	4005.75
417.775	3950.75
417.885	4056.75
417.995	4062.75
418.106	4183.75
418.216	4214.75
418.326	4128.75
418.436	4202.75
418.547	4250.75
418.657	4192.75
418.767	4400.75
418.877	4274.75
418.987	4262.75
419.098	4345.75
419.208	4393.75
419.318	4399.75
419.428	4400.75
419.538	4365.75
419.648	4473.75
419.759	4397.75
419.869	4449.75
419.979	4433.75
420.089	4365.75
420.199	4422.75
420.309	4413.75
420.419	4376.75
420.529	4291.75
420.639	4524.75
420.749	4487.75
420.859	4507.75
420.969	4538.75
421.079	4735.75
421.189	4551.75
421.299	4553.75
421.409	4574.75
421.519	4561.75
421.629	4659.75
421.739	4547.75
421.849	4536.75
421.959	4589.75
422.069	4641.75
422.179	4732.75
422.289	4672.75
422.399	4785.75
422.509	4889.75
422.619	7422.75
422.729	4971.75
422.838	4885.75
422.948	4954.75
423.058	4965.75
423.168	5039.75
423.278	5033.75
423.388	5039.75
423.498	5217.75
423.607	5294.75
423.717	5531.75
423.827	5433.75
423.937	5348.75
424.046	5385.75
424.156	5468.75
424.266	5379.75
424.376	5626.75
424.485	5558.75
424.595	5512.75
424.705	5470.75
424.815	5476.75
424.924	5848.75
425.034	5594.75
425.144	5530.75
425.253	5588.75
425.363	5767.75
425.473	5756.75
425.582	5607.75
425.692	5734.75
425.801	5594.75
425.911	5891.75
426.021	5803.75
426.13	5922.75
426.24	5880.75
426.349	5830.75
426.459	5910.75
426.568	5854.75
426.678	6034.75
426.787	6034.75
426.897	5901.75
427.006	5981.75
427.116	6052.75
427.225	5998.75
427.335	6173.75
427.444	6071.75
427.554	6093.75
427.663	6256.75
427.773	6233.75
427.882	6209.75
427.992	6197.75
428.101	6349.75
428.21	6435.75
428.32	6477.75
428.429	6345.75
428.539	6635.75
428.648	6484.75
428.757	6478.75
428.867	6651.75
428.976	6732.75
429.085	6539.75
429.195	6498.75
429.304	6606.75
429.413	6613.75
429.523	6657.75
429.632	6785.75
429.741	6743.75
429.85	6719.75
429.96	6823.75
430.069	6760.75
430.178	6837.75
430.287	7205.75
430.397	6971.75
430.506	6919.75
430.615	6882.75
430.724	7059.75
430.833	7001.75
430.943	6988.75
431.052	7174.75
431.161	7153.75
431.27	7289.75
431.379	7278.75
431.488	7548.75
431.597	7362.75
431.706	7632.75
431.816	7585.75
431.925	7562.75
432.034	7446.75
432.143	7476.75
432.252	7354.75
432.361	7422.75
432.47	7393.75
432.579	7457.75
432.688	7357.75
432.797	7437.75
432.906	7378.75
433.015	7423.75
433.124	7838.75
433.233	7590.75
433.342	7492.75
433.451	7509.75
433.56	7421.75
433.669	7539.75
433.778	7465.75
433.886	7635.75
433.995	7584.75
434.104	7844.75
434.213	7872.75
434.322	7877.75
434.431	7976.75
434.54	8141.75
434.649	8407.75
434.757	8364.75
434.866	8321.75
434.975	8157.75
435.084	8088.75
435.193	7953.75
435.301	7894.75
435.41	7910.75
435.519	7920.75
435.628	7402.75
435.737	7367.75
435.845	7160.75
435.954	7120.75
436.063	7153.75
436.171	7062.75
436.28	7052.75
436.389	7203.75
436.498	7039.75
436.606	7133.75
436.715	7200.75
436.823	6968.75
436.932	6878.75
437.041	6812.75
437.149	6832.75
437.258	6664.75
437.367	6542.75
437.475	6620.75
437.584	6937.75
437.692	6634.75
437.801	7841.75
437.91	6666.75
438.018	6585.75
438.127	6433.75
438.235	6497.75
438.344	6548.75
438.452	6576.75
438.561	6388.75
438.669	6416.75
438.778	6358.75
438.886	6365.75
438.995	6228.75
439.103	6370.75
439.212	6399.75
439.32	6447.75
439.428	6356.75
439.537	6356.75
439.645	6641.75
439.754	6623.75
439.862	6380.75
439.97	6454.75
440.079	6605.75
440.187	6442.75
440.295	6619.75
440.404	6452.75
440.512	6498.75
440.62	6606.75
440.729	6649.75
440.837	6765.75
440.945	7330.75
441.054	6977.75
441.162	6963.75
441.27	7081.75
441.378	7249.75
441.487	7111.75
441.595	7633.75
441.703	7244.75
441.811	7142.75
441.92	7052.75
442.028	6972.75
442.136	6992.75
442.244	7032.75
442.352	6807.75
442.461	6706.75
442.569	6803.75
442.677	6905.75
442.785	6953.75
442.893	6775.75
443.001	6809.75
443.109	6690.75
443.217	6904.75
443.325	6959.75
443.434	7453.75
443.542	7183.75
443.65	7022.75
443.758	7149.75
443.866	7098.75
443.974	7441.75
444.082	7335.75
444.19	7457.75
444.298	7658.75
444.406	7831.75
444.514	7979.75
444.622	8094.75
444.73	8095.75
444.838	7870.75
444.946	7918.75
445.054	7521.75
445.161	7554.75
445.269	7238.75
445.377	7355.75
445.485	7235.75
445.593	7219.75
445.701	7310.75
445.809	7068.75
445.917	6959.75
446.025	6907.75
446.132	7116.75
446.24	6966.75
446.348	6871.75
446.456	6895.75
446.564	6906.75
446.671	7044.75
446.779	6918.75
446.887	6831.75
446.995	6724.75
447.102	6847.75
447.21	6801.75
447.318	6705.75
447.426	6801.75
447.533	7074.75
447.641	7731.75
447.749	6911.75
447.856	6914.75
447.964	6830.75
448.072	6921.75
448.179	6833.75
448.287	6762.75
448.395	6933.75
448.502	6759.75
448.61	6956.75
448.718	6795.75
448.825	6954.75
448.933	6855.75
449.04	6967.75
449.148	6967.75
449.256	6989.75
449.363	6864.75
449.471	7128.75
449.578	7182.75
449.686	7078.75
449.793	7287.75
449.901	7220.75
450.008	7226.75
450.116	7240.75
450.223	7342.75
450.331	7460.75
450.438	7514.75
450.546	7559.75
450.653	7794.75
450.76	7847.75
450.868	7809.75
450.975	7987.75
451.083	7824.75
451.19	7881.75
451.297	7850.75
451.405	7910.75
451.512	7853.75
451.619	8115.75
451.727	8111.75
451.834	7848.75
451.941	8078.75
452.049	7995.75
452.156	8176.75
452.263	8197.75
452.371	8271.75
452.478	8184.75
452.585	8208.75
452.692	8243.75
452.8	8337.75
452.907	8547.75
453.014	8351.75
453.121	8383.75
453.229	8333.75
453.336	8422.75
453.443	8523.75
453.55	8489.75
453.657	8409.75
453.765	8650.75
453.872	8525.75
453.979	8687.75
454.086	8807.75
454.193	8718.75
454.3	8588.75
454.407	8785.75
454.514	8851.75
454.621	8665.75
454.729	8675.75
454.836	8872.75
454.943	8929.75
455.05	8896.75
455.157	8977.75
455.264	8906.75
455.371	8965.75
455.478	9116.75
455.585	10313.75
455.692	9282.75
455.799	9356.75
455.906	9207.75
456.013	9139.75
456.12	9264.75
456.227	9221.75
456.334	9251.75
456.44	9485.75
456.547	9504.75
456.654	9353.75
456.761	9528.75
456.868	9629.75
456.975	9571.75
457.082	9528.75
457.189	9516.75
457.296	9652.75
457.402	9692.75
457.509	9608.75
457.616	9745.75
457.723	10044.75
457.83	10050.75
457.936	9990.75
458.043	10387.75
458.15	10079.75
458.257	10322.75
458.363	10601.75
458.47	10506.75
458.577	10791.75
458.684	10873.75
458.79	11107.75
458.897	11233.75
459.004	11446.75
459.11	11484.75
459.217	11507.75
459.324	11679.75
459.43	11971.75
459.537	12005.75
459.644	12066.75
459.75	12054.75
459.857	12596.75
459.964	12612.75
460.07	12523.75
460.177	12888.75
460.283	12824.75
460.39	13122.75
460.496	12612.75
460.603	12774.75
460.71	12923.75
460.816	12636.75
460.923	12522.75
461.029	12627.75
461.136	12783.75
461.242	12676.75
461.349	12760.75
461.455	12831.75
461.562	13035.75
461.668	13001.75
461.774	12800.75
461.881	13161.75
461.987	13177.75
462.094	13452.75
462.2	13445.75
462.307	13535.75
462.413	13479.75
462.519	13924.75
462.626	14516.75
462.732	14516.75
462.838	14516.75
462.945	14516.75
463.051	14516.75
463.157	14516.75
463.264	14516.75
463.37	14516.75
463.476	14265.75
463.583	14054.75
463.689	13838.75
463.795	14045.75
463.901	14009.75
464.008	13998.75
464.114	14307.75
464.22	14002.75
464.326	13908.75
464.433	13702.75
464.539	13531.75
464.645	13174.75
464.751	13315.75
464.857	12714.75
464.963	12342.75
465.07	12157.75
465.176	11690.75
465.282	11313.75
465.388	11271.75
465.494	10975.75
465.6	10679.75
465.706	10404.75
465.812	10418.75
465.918	10350.75
466.024	10225.75
466.131	10110.75
466.237	9927.75
466.343	9642.75
466.449	9614.75
466.555	9517.75
466.661	9338.75
466.767	9295.75
466.873	9303.75
466.979	9368.75
467.085	9111.75
467.191	9306.75
467.296	9133.75
467.402	8998.75
467.508	8978.75
467.614	9063.75
467.72	8800.75
467.826	8655.75
467.932	8563.75
468.038	8473.75
468.144	8435.75
468.25	8502.75
468.355	8366.75
468.461	8424.75
468.567	8295.75
468.673	8263.75
468.779	8178.75
468.885	8196.75
468.99	8275.75
469.096	8199.75
469.202	8492.75
469.308	8338.75
469.413	8382.75
469.519	8338.75
469.625	8526.75
469.731	8376.75
469.836	8407.75
469.942	8676.75
470.048	8466.75
470.153	8579.75
470.259	8566.75
470.365	8509.75
470.47	8536.75
470.576	8438.75
470.682	8563.75
470.787	8285.75
470.893	8076.75
470.999	8154.75
471.104	7930.75
471.21	7790.75
471.315	7842.75
471.421	7834.75
471.527	7916.75
471.632	7769.75
471.738	7643.75
471.843	7609.75
471.949	7524.75
472.054	7508.75
472.16	7233.75
472.265	7311.75
472.371	7276.75
472.476	7347.75
472.582	7242.75
472.687	7147.75
472.793	7021.75
472.898	7143.75
473.003	7056.75
473.109	6975.75
473.214	6930.75
473.32	6999.75
473.425	7037.75
473.53	6994.75
473.636	6894.75
473.741	6987.75
473.847	6791.75
473.952	6973.75
474.057	6841.75
474.163	7087.75
474.268	6895.75
474.373	6927.75
474.478	6951.75
474.584	6785.75
474.689	6871.75
474.794	6946.75
474.9	7128.75
475.005	6963.75
475.11	7134.75
475.215	6927.75
475.321	6887.75
475.426	7132.75
475.531	7071.75
475.636	6851.75
475.741	7001.75
475.846	7131.75
475.952	7182.75
476.057	7083.75
476.162	7140.75
476.267	7167.75
476.372	7388.75
476.477	7216.75
476.582	7240.75
476.687	7208.75
476.793	7239.75
476.898	7176.75
477.003	7223.75
477.108	7350.75
477.213	7351.75
477.318	7394.75
477.423	7564.75
477.528	7728.75
477.633	7782.75
477.738	7876.75
477.843	7633.75
477.948	7825.75
478.053	7873.75
478.158	7964.75
478.263	8011.75
478.368	7991.75
478.473	8239.75
478.578	8210.75
478.682	8210.75
478.787	8376.75
478.892	8176.75
478.997	8480.75
479.102	8426.75
479.207	8365.75
479.312	8448.75
479.417	8598.75
479.521	8524.75
479.626	8667.75
479.731	8593.75
479.836	8669.75
479.941	8912.75
480.045	8965.75
480.15	9116.75
480.255	9155.75
480.36	9183.75
480.465	9216.75
480.569	9372.75
480.674	9089.75
480.779	8861.75
480.883	8895.75
480.988	8836.75
481.093	8798.75
481.197	8625.75
481.302	8706.75
481.407	8659.75
481.511	10454.75
481.616	8730.75
481.721	8793.75
481.825	8934.75
481.93	8738.75
482.035	8688.75
482.139	8763.75
482.244	8869.75
482.348	8839.75
482.453	8880.75
482.557	9016.75
482.662	9008.75
482.767	9003.75
482.871	9124.75
482.976	9182.75
483.08	9159.75
483.185	9429.75
483.289	9331.75
483.394	9240.75
483.498	9336.75
483.603	9369.75
483.707	9452.75
483.811	9691.75
483.916	9724.75
484.02	9612.75
484.125	9795.75
484.229	9965.75
484.333	9962.75
484.438	9951.75
484.542	10122.75
484.647	10028.75
484.751	10311.75
484.855	10410.75
484.96	10345.75
485.064	10489.75
485.168	10488.75
485.273	10511.75
485.377	10584.75
485.481	10822.75
485.585	10914.75
485.69	10755.75
485.794	10814.75
485.898	10892.75
486.002	10876.75
486.107	10833.75
486.211	10868.75
486.315	11106.75
486.419	11006.75
486.524	11200.75
486.628	10975.75
486.732	11028.75
486.836	11029.75
486.94	11098.75
487.044	10945.75
487.148	11063.75
487.253	10974.75
487.357	11065.75
487.461	11347.75
487.565	11068.75
487.669	11052.75
487.773	11033.75
487.877	11038.75
487.981	11073.75
488.085	10884.75
488.189	10976.75
488.293	11327.75
488.397	11455.75
488.501	11102.75
488.605	11237.75
488.709	10991.75
488.813	11013.75
488.917	11010.75
489.021	10926.75
489.125	11144.75
489.229	11044.75
489.333	11212.75
489.437	11059.75
489.541	11208.75
489.645	11082.75
489.749	11226.75
489.853	11181.75
489.956	11169.75
490.06	11091.75
490.164	11085.75
490.268	11135.75
490.372	11254.75
490.476	11062.75
490.579	11148.75
490.683	11797.75
490.787	11318.75
490.891	11127.75
490.995	11297.75
491.098	11114.75
491.202	11269.75
491.306	11320.75
491.41	11167.75
491.513	11131.75
491.617	11211.75
491.721	11372.75
491.824	11317.75
491.928	11150.75
492.032	11412.75
492.136	11132.75
492.239	11219.75
492.343	11294.75
492.446	11655.75
492.55	11232.75
492.654	11166.75
492.757	11122.75
492.861	11228.75
492.965	11202.75
493.068	11272.75
493.172	11275.75
493.275	11296.75
493.379	11231.75
493.482	11224.75
493.586	11332.75
493.689	11390.75
493.793	11308.75
493.896	11471.75
494	11369.75
494.103	11331.75
494.207	11544.75
494.31	11606.75
494.414	11345.75
494.517	11266.75
494.621	11285.75
494.724	11112.75
494.828	11211.75
494.931	11143.75
495.034	11204.75
495.138	11266.75
495.241	11057.75
495.345	11706.75
495.448	11086.75
495.551	10889.75
495.655	11086.75
495.758	10864.75
495.861	11039.75
495.965	11035.75
496.068	11045.75
496.171	11071.75
496.274	11162.75
496.378	11152.75
496.481	11103.75
496.584	11259.75
496.687	11248.75
496.791	11399.75
496.894	11451.75
496.997	11332.75
497.1	11276.75
497.204	11562.75
497.307	11473.75
497.41	11729.75
497.513	11952.75
497.616	11685.75
497.719	11965.75
497.823	12159.75
497.926	12250.75
498.029	12573.75
498.132	12710.75
498.235	12864.75
498.338	13035.75
498.441	13409.75
498.544	13550.75
498.647	13950.75
498.75	14306.75
498.853	14516.75
498.956	14516.75
499.059	14516.75
499.163	14516.75
499.266	14516.75
499.369	14516.75
499.471	14516.75
499.574	14516.75
499.677	14516.75
499.78	14516.75
499.883	14516.75
499.986	14516.75
500.089	14516.75
500.192	14516.75
500.295	14516.75
500.398	14516.75
500.501	14516.75
500.604	14516.75
500.707	14516.75
500.809	14516.75
500.912	14516.75
501.015	14516.75
501.118	14516.75
501.221	14516.75
501.324	14516.75
501.426	14516.75
501.529	14516.75
501.632	14516.75
501.735	14170.75
501.837	13865.75
501.94	13490.75
502.043	13219.75
502.146	12745.75
502.248	12570.75
502.351	12473.75
502.454	12088.75
502.557	11918.75
502.659	11634.75
502.762	11239.75
502.865	11041.75
502.967	10956.75
503.07	10694.75
503.173	10668.75
503.275	10580.75
503.378	10309.75
503.48	10185.75
503.583	10096.75
503.686	10028.75
503.788	10197.75
503.891	10185.75
503.993	10377.75
504.096	10067.75
504.198	10173.75
504.301	10171.75
504.403	10090.75
504.506	10035.75
504.608	9900.75
504.711	9772.75
504.813	9606.75
504.916	9256.75
505.018	9091.75
505.121	8908.75
505.223	8920.75
505.326	8802.75
505.428	8665.75
505.531	8441.75
505.633	8440.75
505.735	8224.75
505.838	8205.75
505.94	8156.75
506.042	8175.75
506.145	8012.75
506.247	8113.75
506.35	7915.75
506.452	7882.75
506.554	7933.75
506.656	7874.75
506.759	7686.75
506.861	7739.75
506.963	7702.75
507.066	7746.75
507.168	7686.75
507.27	7727.75
507.372	7563.75
507.475	7537.75
507.577	7648.75
507.679	7547.75
507.781	7443.75
507.883	7340.75
507.986	7326.75
508.088	7381.75
508.19	7361.75
508.292	7427.75
508.394	7263.75
508.496	7263.75
508.598	7281.75
508.701	7259.75
508.803	7292.75
508.905	7138.75
509.007	7121.75
509.109	7158.75
509.211	7104.75
509.313	7092.75
509.415	7034.75
509.517	7056.75
509.619	7057.75
509.721	7012.75
509.823	7027.75
509.925	7235.75
510.027	6919.75
510.129	6998.75
510.231	7059.75
510.333	6939.75
510.435	6834.75
510.537	6964.75
510.639	7033.75
510.741	7035.75
510.843	6968.75
510.945	6991.75
511.047	7053.75
511.148	6986.75
511.25	7015.75
511.352	7014.75
511.454	6859.75
511.556	7061.75
511.658	7050.75
511.76	7040.75
511.861	7186.75
511.963	6872.75
512.065	7049.75
512.167	6838.75
512.268	7218.75
512.37	7047.75
512.472	7044.75
512.574	7147.75
512.676	7082.75
512.777	7018.75
512.879	7160.75
512.981	7089.75
513.082	7048.75
513.184	7117.75
513.286	7611.75
513.387	7166.75
513.489	7338.75
513.591	7279.75
513.692	7213.75
513.794	7314.75
513.896	7100.75
513.997	7197.75
514.099	7299.75
514.2	7359.75
514.302	7334.75
514.404	7404.75
514.505	7407.75
514.607	7467.75
514.708	7356.75
514.81	7462.75
514.911	7630.75
515.013	7637.75
515.114	7617.75
515.216	7671.75
515.317	7652.75
515.419	7758.75
515.52	7976.75
515.622	7772.75
515.723	7908.75
515.825	8223.75
515.926	8109.75
516.027	8239.75
516.129	8253.75
516.23	8482.75
516.332	8545.75
516.433	8677.75
516.534	8791.75
516.636	8760.75
516.737	8935.75
516.838	10198.75
516.94	9494.75
517.041	9559.75
517.142	9949.75
517.244	9920.75
517.345	9814.75
517.446	10127.75
517.547	10293.75
517.649	10143.75
517.75	10286.75
517.851	10186.75
517.952	10472.75
518.054	10056.75
518.155	10194.75
518.256	9727.75
518.357	9806.75
518.458	9468.75
518.56	9446.75
518.661	9281.75
518.762	9281.75
518.863	9305.75
518.964	9127.75
519.065	8860.75
519.166	8873.75
519.268	8636.75
519.369	8913.75
519.47	8675.75
519.571	8684.75
519.672	8529.75
519.773	8455.75
519.874	8557.75
519.975	8444.75
520.076	8461.75
520.177	8543.75
520.278	8286.75
520.379	8329.75
520.48	8235.75
520.581	8247.75
520.682	8204.75
520.783	8244.75
520.884	8186.75
520.985	8188.75
521.086	8190.75
521.187	8183.75
521.288	8123.75
521.389	8200.75
521.489	8152.75
521.59	8084.75
521.691	8081.75
521.792	8171.75
521.893	8253.75
521.994	8110.75
522.095	8128.75
522.195	8147.75
522.296	8205.75
522.397	8208.75
522.498	8197.75
522.599	8041.75
522.699	8013.75
522.8	8223.75
522.901	8141.75
523.002	8068.75
523.102	8406.75
523.203	8013.75
523.304	8273.75
523.405	8276.75
523.505	8027.75
523.606	8234.75
523.707	8200.75
523.807	8175.75
523.908	8091.75
524.009	8233.75
524.109	8318.75
524.21	8107.75
524.31	8272.75
524.411	8341.75
524.512	8355.75
524.612	8283.75
524.713	8345.75
524.813	8112.75
524.914	8393.75
525.014	13040.75
525.115	8519.75
525.216	8089.75
525.316	8234.75
525.417	8257.75
525.517	8156.75
525.618	8237.75
525.718	8144.75
525.819	8106.75
525.919	8138.75
526.019	8221.75
526.12	8219.75
526.22	8090.75
526.321	8074.75
526.421	8025.75
526.522	8073.75
526.622	7978.75
526.722	7978.75
526.823	8035.75
526.923	8015.75
527.023	8109.75
527.124	8134.75
527.224	8229.75
527.324	8039.75
527.425	8198.75
527.525	8027.75
527.625	8139.75
527.726	8080.75
527.826	8039.75
527.926	8229.75
528.026	8152.75
528.127	8042.75
528.227	8133.75
528.327	8159.75
528.427	8094.75
528.528	8146.75
528.628	8246.75
528.728	8143.75
528.828	8193.75
528.928	8253.75
529.029	8087.75
529.129	8118.75
529.229	8116.75
529.329	7999.75
529.429	8175.75
529.529	8236.75
529.629	7981.75
529.729	7971.75
529.829	8121.75
529.93	8092.75
530.03	7974.75
530.13	7875.75
530.23	7873.75
530.33	7855.75
530.43	7839.75
530.53	7953.75
530.63	7703.75
530.73	7766.75
530.83	7782.75
530.93	7793.75
531.03	7689.75
531.13	7871.75
531.23	7679.75
531.33	7787.75
531.429	7765.75
531.529	7859.75
531.629	7658.75
531.729	7633.75
531.829	7786.75
531.929	7766.75
532.029	7777.75
532.129	7648.75
532.229	7665.75
532.328	7691.75
532.428	7708.75
532.528	7514.75
532.628	7450.75
532.728	7611.75
532.827	7432.75
532.927	7526.75
533.027	7591.75
533.127	7679.75
533.227	7509.75
533.326	7461.75
533.426	7452.75
533.526	7470.75
533.625	7697.75
533.725	7791.75
533.825	7462.75
533.924	7342.75
534.024	7095.75
534.124	7275.75
534.223	7287.75
534.323	7609.75
534.423	7287.75
534.522	7090.75
534.622	7100.75
534.722	7256.75
534.821	7077.75
534.921	7094.75
535.02	7034.75
535.12	7257.75
535.219	7186.75
535.319	7105.75
535.419	7047.75
535.518	6848.75
535.618	6904.75
535.717	7042.75
535.817	6869.75
535.916	6714.75
536.016	6893.75
536.115	6702.75
