Data from sinsal_HRC06701__28__89.txt Node

Date: Thu Apr 18 01:41:31 CDT 2024
User: Estudiantes 2
Spectrometer: HR+C0670
Trigger mode: 4
Integration Time (sec): 1.000000E0
Scans to average: 1
Electric dark correction enabled: true
Nonlinearity correction enabled: false
Boxcar width: 0
XAxis mode: Wavelengths
Number of Pixels in Spectrum: 2048
>>>>>Begin Spectral Data<<<<<
407.81	-77.31
407.921	-77.31
408.032	-77.31
408.143	-128.31
408.254	-103.31
408.365	50.69
408.476	140.69
408.587	-35.31
408.699	8.69
408.81	-30.31
408.921	-35.31
409.032	-7.31
409.143	35.69
409.254	28.69
409.365	94.69
409.476	-25.31
409.587	13.69
409.698	69.69
409.809	138.69
409.92	-35.31
410.031	-21.31
410.142	98.69
410.253	9.69
410.364	12.69
410.475	141.69
410.585	617.69
410.696	647.69
410.807	704.69
410.918	647.69
411.029	701.69
411.14	676.69
411.251	649.69
411.362	705.69
411.472	742.69
411.583	728.69
411.694	675.69
411.805	679.69
411.916	748.69
412.026	727.69
412.137	724.69
412.248	698.69
412.359	664.69
412.47	649.69
412.58	631.69
412.691	723.69
412.802	689.69
412.912	697.69
413.023	702.69
413.134	617.69
413.245	728.69
413.355	730.69
413.466	659.69
413.577	640.69
413.687	745.69
413.798	584.69
413.909	689.69
414.019	682.69
414.13	702.69
414.24	691.69
414.351	737.69
414.462	889.69
414.572	687.69
414.683	731.69
414.793	716.69
414.904	947.69
415.014	680.69
415.125	658.69
415.235	709.69
415.346	764.69
415.456	801.69
415.567	685.69
415.677	702.69
415.788	744.69
415.898	751.69
416.009	675.69
416.119	651.69
416.23	719.69
416.34	603.69
416.45	669.69
416.561	1218.69
416.671	784.69
416.782	622.69
416.892	733.69
417.002	731.69
417.113	751.69
417.223	706.69
417.333	744.69
417.444	707.69
417.554	733.69
417.664	776.69
417.775	623.69
417.885	715.69
417.995	779.69
418.106	806.69
418.216	770.69
418.326	795.69
418.436	784.69
418.547	752.69
418.657	758.69
418.767	881.69
418.877	774.69
418.987	752.69
419.098	835.69
419.208	801.69
419.318	850.69
419.428	898.69
419.538	752.69
419.648	785.69
419.759	900.69
419.869	783.69
419.979	761.69
420.089	830.69
420.199	815.69
420.309	832.69
420.419	813.69
420.529	799.69
420.639	1046.69
420.749	887.69
420.859	861.69
420.969	844.69
421.079	1017.69
421.189	913.69
421.299	874.69
421.409	747.69
421.519	910.69
421.629	879.69
421.739	784.69
421.849	798.69
421.959	817.69
422.069	857.69
422.179	808.69
422.289	837.69
422.399	852.69
422.509	921.69
422.619	2833.69
422.729	1102.69
422.838	814.69
422.948	918.69
423.058	870.69
423.168	912.69
423.278	893.69
423.388	924.69
423.498	952.69
423.607	920.69
423.717	1250.69
423.827	1115.69
423.937	960.69
424.046	1083.69
424.156	1036.69
424.266	906.69
424.376	1105.69
424.485	1033.69
424.595	984.69
424.705	994.69
424.815	995.69
424.924	1352.69
425.034	1003.69
425.144	1016.69
425.253	983.69
425.363	1002.69
425.473	1089.69
425.582	962.69
425.692	948.69
425.801	983.69
425.911	1118.69
426.021	1005.69
426.13	1118.69
426.24	1230.69
426.349	1127.69
426.459	1066.69
426.568	1061.69
426.678	1091.69
426.787	1041.69
426.897	1050.69
427.006	1047.69
427.116	1057.69
427.225	1109.69
427.335	1141.69
427.444	1078.69
427.554	1120.69
427.663	1118.69
427.773	1048.69
427.882	1139.69
427.992	1098.69
428.101	1081.69
428.21	1037.69
428.32	1174.69
428.429	1064.69
428.539	1295.69
428.648	1134.69
428.757	1135.69
428.867	1176.69
428.976	1263.69
429.085	1171.69
429.195	1079.69
429.304	1156.69
429.413	1256.69
429.523	1234.69
429.632	1257.69
429.741	1267.69
429.85	1148.69
429.96	1202.69
430.069	1153.69
430.178	1145.69
430.287	1368.69
430.397	1258.69
430.506	1195.69
430.615	1192.69
430.724	1187.69
430.833	1231.69
430.943	1195.69
431.052	1233.69
431.161	1286.69
431.27	1270.69
431.379	1259.69
431.488	1412.69
431.597	1348.69
431.706	1375.69
431.816	1303.69
431.925	1331.69
432.034	1294.69
432.143	1332.69
432.252	1316.69
432.361	1307.69
432.47	1281.69
432.579	1336.69
432.688	1317.69
432.797	1289.69
432.906	1275.69
433.015	1315.69
433.124	1645.69
433.233	1380.69
433.342	1353.69
433.451	1294.69
433.56	1344.69
433.669	1343.69
433.778	1340.69
433.886	1356.69
433.995	1338.69
434.104	1420.69
434.213	1371.69
434.322	1399.69
434.431	1451.69
434.54	1459.69
434.649	1570.69
434.757	1452.69
434.866	1455.69
434.975	1475.69
435.084	1427.69
435.193	1442.69
435.301	1599.69
435.41	1670.69
435.519	1684.69
435.628	1330.69
435.737	1331.69
435.845	1244.69
435.954	1192.69
436.063	1297.69
436.171	1252.69
436.28	1228.69
436.389	1358.69
436.498	1259.69
436.606	1264.69
436.715	1327.69
436.823	1264.69
436.932	1136.69
437.041	1153.69
437.149	1235.69
437.258	1142.69
437.367	1114.69
437.475	1215.69
437.584	1334.69
437.692	1167.69
437.801	2433.69
437.91	1263.69
438.018	1107.69
438.127	1108.69
438.235	1215.69
438.344	1148.69
438.452	1211.69
438.561	1165.69
438.669	1149.69
438.778	1058.69
438.886	1169.69
438.995	1122.69
439.103	1110.69
439.212	1146.69
439.32	1121.69
439.428	1101.69
439.537	1116.69
439.645	1194.69
439.754	1135.69
439.862	1096.69
439.97	1159.69
440.079	1174.69
440.187	1054.69
440.295	1263.69
440.404	1182.69
440.512	1170.69
440.62	1233.69
440.729	1225.69
440.837	1260.69
440.945	1762.69
441.054	1291.69
441.162	1192.69
441.27	1305.69
441.378	1295.69
441.487	1206.69
441.595	1596.69
441.703	1415.69
441.811	1290.69
441.92	1235.69
442.028	1237.69
442.136	1200.69
442.244	1240.69
442.352	1270.69
442.461	1160.69
442.569	1164.69
442.677	1180.69
442.785	1260.69
442.893	1170.69
443.001	1199.69
443.109	1218.69
443.217	1131.69
443.325	1154.69
443.434	1630.69
443.542	1389.69
443.65	1217.69
443.758	1415.69
443.866	1267.69
443.974	1438.69
444.082	1306.69
444.19	1340.69
444.298	1377.69
444.406	1408.69
444.514	1406.69
444.622	1464.69
444.73	1469.69
444.838	1405.69
444.946	1446.69
445.054	1310.69
445.161	1316.69
445.269	1279.69
445.377	1243.69
445.485	1275.69
445.593	1249.69
445.701	1402.69
445.809	1324.69
445.917	1285.69
446.025	1127.69
446.132	1293.69
446.24	1324.69
446.348	1287.69
446.456	1162.69
446.564	1248.69
446.671	1285.69
446.779	1180.69
446.887	1199.69
446.995	1227.69
447.102	1279.69
447.21	1242.69
447.318	1266.69
447.426	1160.69
447.533	1380.69
447.641	2251.69
447.749	1295.69
447.856	1188.69
447.964	1282.69
448.072	1274.69
448.179	1146.69
448.287	1230.69
448.395	1267.69
448.502	1197.69
448.61	1243.69
448.718	1241.69
448.825	1240.69
448.933	1166.69
449.04	1245.69
449.148	1189.69
449.256	1262.69
449.363	1290.69
449.471	1219.69
449.578	1355.69
449.686	1238.69
449.793	1388.69
449.901	1222.69
450.008	1281.69
450.116	1354.69
450.223	1296.69
450.331	1368.69
450.438	1393.69
450.546	1410.69
450.653	1449.69
450.76	1408.69
450.868	1410.69
450.975	1543.69
451.083	1449.69
451.19	1450.69
451.297	1363.69
451.405	1439.69
451.512	1439.69
451.619	1491.69
451.727	1535.69
451.834	1453.69
451.941	1406.69
452.049	1423.69
452.156	1468.69
452.263	1458.69
452.371	1449.69
452.478	1538.69
452.585	1513.69
452.692	1386.69
452.8	1526.69
452.907	1578.69
453.014	1481.69
453.121	1493.69
453.229	1596.69
453.336	1527.69
453.443	1649.69
453.55	1512.69
453.657	1512.69
453.765	1514.69
453.872	1593.69
453.979	1552.69
454.086	1529.69
454.193	1560.69
454.3	1549.69
454.407	1608.69
454.514	1641.69
454.621	1551.69
454.729	1543.69
454.836	1556.69
454.943	1596.69
455.05	1575.69
455.157	1649.69
455.264	1624.69
455.371	1560.69
455.478	1554.69
455.585	2705.69
455.692	1681.69
455.799	1712.69
455.906	1537.69
456.013	1643.69
456.12	1556.69
456.227	1591.69
456.334	1699.69
456.44	1752.69
456.547	1633.69
456.654	1645.69
456.761	1616.69
456.868	1746.69
456.975	1771.69
457.082	1665.69
457.189	1572.69
457.296	1710.69
457.402	1711.69
457.509	1655.69
457.616	1755.69
457.723	1961.69
457.83	1676.69
457.936	1708.69
458.043	2004.69
458.15	1711.69
458.257	1870.69
458.363	1840.69
458.47	1865.69
458.577	1875.69
458.684	1808.69
458.79	2001.69
458.897	1900.69
459.004	1991.69
459.11	2025.69
459.217	2015.69
459.324	2073.69
459.43	2165.69
459.537	2241.69
459.644	2041.69
459.75	2094.69
459.857	2398.69
459.964	2160.69
460.07	2218.69
460.177	2151.69
460.283	2201.69
460.39	2347.69
460.496	2276.69
460.603	2226.69
460.71	2213.69
460.816	2251.69
460.923	2163.69
461.029	2222.69
461.136	2247.69
461.242	2153.69
461.349	2184.69
461.455	2183.69
461.562	2422.69
461.668	2282.69
461.774	2192.69
461.881	2337.69
461.987	2253.69
462.094	2286.69
462.2	2422.69
462.307	2381.69
462.413	2274.69
462.519	2344.69
462.626	2515.69
462.732	2518.69
462.838	2637.69
462.945	2729.69
463.051	2686.69
463.157	2647.69
463.264	2585.69
463.37	2553.69
463.476	2465.69
463.583	2530.69
463.689	2398.69
463.795	2403.69
463.901	2502.69
464.008	2583.69
464.114	2400.69
464.22	2496.69
464.326	2419.69
464.433	2312.69
464.539	2355.69
464.645	2334.69
464.751	2386.69
464.857	2200.69
464.963	2122.69
465.07	2108.69
465.176	2033.69
465.282	1983.69
465.388	2022.69
465.494	1847.69
465.6	1841.69
465.706	1756.69
465.812	1721.69
465.918	1858.69
466.024	1715.69
466.131	1758.69
466.237	1688.69
466.343	1671.69
466.449	1547.69
466.555	1615.69
466.661	1634.69
466.767	1579.69
466.873	1627.69
466.979	1726.69
467.085	1546.69
467.191	1654.69
467.296	1541.69
467.402	1551.69
467.508	1598.69
467.614	1644.69
467.72	1549.69
467.826	1511.69
467.932	1513.69
468.038	1484.69
468.144	1484.69
468.25	1455.69
468.355	1443.69
468.461	1397.69
468.567	1353.69
468.673	1487.69
468.779	1414.69
468.885	1417.69
468.99	1405.69
469.096	1475.69
469.202	1498.69
469.308	1399.69
469.413	1520.69
469.519	1419.69
469.625	1442.69
469.731	1479.69
469.836	1435.69
469.942	1593.69
470.048	1502.69
470.153	1513.69
470.259	1445.69
470.365	1568.69
470.47	1531.69
470.576	1466.69
470.682	1433.69
470.787	1454.69
470.893	1392.69
470.999	1427.69
471.104	1500.69
471.21	1330.69
471.315	1226.69
471.421	1323.69
471.527	1479.69
471.632	1424.69
471.738	1373.69
471.843	1310.69
471.949	1361.69
472.054	1292.69
472.16	1311.69
472.265	1262.69
472.371	1249.69
472.476	1307.69
472.582	1262.69
472.687	1257.69
472.793	1217.69
472.898	1178.69
473.003	1198.69
473.109	1202.69
473.214	1200.69
473.32	1134.69
473.425	1235.69
473.53	1263.69
473.636	1167.69
473.741	1222.69
473.847	1217.69
473.952	1185.69
474.057	1233.69
474.163	1288.69
474.268	1157.69
474.373	1222.69
474.478	1169.69
474.584	1167.69
474.689	1252.69
474.794	1238.69
474.9	1373.69
475.005	1179.69
475.11	1336.69
475.215	1264.69
475.321	1199.69
475.426	1343.69
475.531	1347.69
475.636	1165.69
475.741	1173.69
475.846	1339.69
475.952	1403.69
476.057	1296.69
476.162	1280.69
476.267	1393.69
476.372	1435.69
476.477	1220.69
476.582	1339.69
476.687	1231.69
476.793	1283.69
476.898	1281.69
477.003	1254.69
477.108	1270.69
477.213	1206.69
477.318	1232.69
477.423	1370.69
477.528	1375.69
477.633	1346.69
477.738	1327.69
477.843	1316.69
477.948	1359.69
478.053	1301.69
478.158	1361.69
478.263	1464.69
478.368	1288.69
478.473	1473.69
478.578	1445.69
478.682	1363.69
478.787	1413.69
478.892	1431.69
478.997	1486.69
479.102	1417.69
479.207	1419.69
479.312	1510.69
479.417	1389.69
479.521	1415.69
479.626	1563.69
479.731	1456.69
479.836	1445.69
479.941	1648.69
480.045	1568.69
480.15	1529.69
480.255	1575.69
480.36	1498.69
480.465	1506.69
480.569	1676.69
480.674	1502.69
480.779	1425.69
480.883	1433.69
480.988	1529.69
481.093	1400.69
481.197	1495.69
481.302	1513.69
481.407	1540.69
481.511	2939.69
481.616	1601.69
481.721	1480.69
481.825	1665.69
481.93	1425.69
482.035	1467.69
482.139	1497.69
482.244	1499.69
482.348	1548.69
482.453	1454.69
482.557	1482.69
482.662	1518.69
482.767	1474.69
482.871	1446.69
482.976	1554.69
483.08	1510.69
483.185	1668.69
483.289	1579.69
483.394	1554.69
483.498	1567.69
483.603	1491.69
483.707	1606.69
483.811	1534.69
483.916	1678.69
484.02	1614.69
484.125	1604.69
484.229	1570.69
484.333	1728.69
484.438	1576.69
484.542	1587.69
484.647	1712.69
484.751	1673.69
484.855	1678.69
484.96	1655.69
485.064	1715.69
485.168	1679.69
485.273	1667.69
485.377	1750.69
485.481	1891.69
485.585	1739.69
485.69	1764.69
485.794	1774.69
485.898	1749.69
486.002	1810.69
486.107	1863.69
486.211	1742.69
486.315	1821.69
486.419	1813.69
486.524	1800.69
486.628	1745.69
486.732	1772.69
486.836	1832.69
486.94	1850.69
487.044	1829.69
487.148	1766.69
487.253	1774.69
487.357	1876.69
487.461	1892.69
487.565	1820.69
487.669	1777.69
487.773	1817.69
487.877	1845.69
487.981	1843.69
488.085	1857.69
488.189	1769.69
488.293	1917.69
488.397	2225.69
488.501	1832.69
488.605	1784.69
488.709	1890.69
488.813	1841.69
488.917	1802.69
489.021	1815.69
489.125	2032.69
489.229	1826.69
489.333	1986.69
489.437	1884.69
489.541	1806.69
489.645	1777.69
489.749	1926.69
489.853	1891.69
489.956	1852.69
490.06	1909.69
490.164	1852.69
490.268	1785.69
490.372	1894.69
490.476	1894.69
490.579	1828.69
490.683	2349.69
490.787	1973.69
490.891	1888.69
490.995	1846.69
491.098	1900.69
491.202	1828.69
491.306	1934.69
491.41	1954.69
491.513	1776.69
491.617	1852.69
491.721	2000.69
491.824	2029.69
491.928	1780.69
492.032	2014.69
492.136	1866.69
492.239	1858.69
492.343	1863.69
492.446	2261.69
492.55	1870.69
492.654	1850.69
492.757	1846.69
492.861	1894.69
492.965	1881.69
493.068	1907.69
493.172	1863.69
493.275	1817.69
493.379	1814.69
493.482	1929.69
493.586	1952.69
493.689	2080.69
493.793	1927.69
493.896	1948.69
494	1987.69
494.103	2034.69
494.207	2154.69
494.31	2205.69
494.414	1999.69
494.517	1918.69
494.621	1797.69
494.724	1890.69
494.828	1807.69
494.931	1777.69
495.034	1825.69
495.138	2023.69
495.241	1767.69
495.345	2455.69
495.448	2005.69
495.551	1811.69
495.655	1814.69
495.758	1779.69
495.861	1783.69
495.965	1886.69
496.068	1959.69
496.171	1876.69
496.274	1810.69
496.378	1855.69
496.481	1858.69
496.584	1866.69
496.687	1835.69
496.791	1900.69
496.894	1875.69
496.997	1875.69
497.1	1930.69
497.204	1897.69
497.307	1864.69
497.41	2066.69
497.513	2117.69
497.616	1839.69
497.719	1906.69
497.823	1935.69
497.926	1946.69
498.029	1983.69
498.132	2075.69
498.235	2067.69
498.338	2096.69
498.441	2192.69
498.544	2152.69
498.647	2244.69
498.75	2459.69
498.853	2533.69
498.956	2414.69
499.059	2677.69
499.163	2626.69
499.266	2606.69
499.369	2742.69
499.471	2819.69
499.574	2978.69
499.677	3070.69
499.78	3287.69
499.883	3389.69
499.986	3589.69
500.089	3710.69
500.192	3755.69
500.295	3835.69
500.398	3883.69
500.501	3785.69
500.604	3586.69
500.707	3440.69
500.809	3464.69
500.912	3270.69
501.015	3148.69
501.118	2923.69
501.221	2851.69
501.324	2620.69
501.426	2586.69
501.529	2435.69
501.632	2400.69
501.735	2234.69
501.837	2182.69
501.94	2179.69
502.043	2031.69
502.146	2086.69
502.248	1993.69
502.351	1949.69
502.454	1939.69
502.557	1878.69
502.659	1848.69
502.762	1845.69
502.865	1724.69
502.967	1690.69
503.07	1753.69
503.173	1754.69
503.275	1681.69
503.378	1745.69
503.48	1680.69
503.583	1734.69
503.686	1669.69
503.788	1879.69
503.891	1621.69
503.993	1837.69
504.096	1647.69
504.198	1670.69
504.301	1597.69
504.403	1754.69
504.506	1645.69
504.608	1657.69
504.711	1602.69
504.813	1638.69
504.916	1604.69
505.018	1488.69
505.121	1502.69
505.223	1486.69
505.326	1477.69
505.428	1555.69
505.531	1450.69
505.633	1416.69
505.735	1428.69
505.838	1371.69
505.94	1340.69
506.042	1437.69
506.145	1338.69
506.247	1386.69
506.35	1336.69
506.452	1455.69
506.554	1382.69
506.656	1379.69
506.759	1339.69
506.861	1328.69
506.963	1302.69
507.066	1442.69
507.168	1384.69
507.27	1311.69
507.372	1300.69
507.475	1275.69
507.577	1279.69
507.679	1258.69
507.781	1255.69
507.883	1265.69
507.986	1199.69
508.088	1314.69
508.19	1326.69
508.292	1294.69
508.394	1298.69
508.496	1185.69
508.598	1234.69
508.701	1260.69
508.803	1265.69
508.905	1202.69
509.007	1267.69
509.109	1306.69
509.211	1291.69
509.313	1288.69
509.415	1231.69
509.517	1257.69
509.619	1203.69
509.721	1278.69
509.823	1220.69
509.925	1344.69
510.027	1239.69
510.129	1208.69
510.231	1241.69
510.333	1217.69
510.435	1153.69
510.537	1241.69
510.639	1258.69
510.741	1221.69
510.843	1237.69
510.945	1190.69
511.047	1305.69
511.148	1250.69
511.25	1197.69
511.352	1255.69
511.454	1182.69
511.556	1256.69
511.658	1255.69
511.76	1291.69
511.861	1275.69
511.963	1227.69
512.065	1249.69
512.167	1187.69
512.268	1373.69
512.37	1296.69
512.472	1211.69
512.574	1282.69
512.676	1260.69
512.777	1169.69
512.879	1189.69
512.981	1144.69
513.082	1275.69
513.184	1241.69
513.286	1616.69
513.387	1331.69
513.489	1309.69
513.591	1225.69
513.692	1341.69
513.794	1256.69
513.896	1172.69
513.997	1254.69
514.099	1180.69
514.2	1298.69
514.302	1351.69
514.404	1226.69
514.505	1210.69
514.607	1320.69
514.708	1265.69
514.81	1288.69
514.911	1287.69
515.013	1370.69
515.114	1325.69
515.216	1259.69
515.317	1383.69
515.419	1308.69
515.52	1340.69
515.622	1403.69
515.723	1345.69
515.825	1429.69
515.926	1389.69
516.027	1372.69
516.129	1351.69
516.23	1447.69
516.332	1490.69
516.433	1453.69
516.534	1485.69
516.636	1530.69
516.737	1460.69
516.838	2383.69
516.94	1711.69
517.041	1585.69
517.142	1734.69
517.244	1808.69
517.345	1672.69
517.446	1677.69
517.547	1783.69
517.649	1703.69
517.75	1679.69
517.851	1656.69
517.952	1951.69
518.054	1724.69
518.155	1755.69
518.256	1610.69
518.357	1723.69
518.458	1507.69
518.56	1560.69
518.661	1546.69
518.762	1478.69
518.863	1658.69
518.964	1625.69
519.065	1497.69
519.166	1507.69
519.268	1469.69
519.369	1639.69
519.47	1472.69
519.571	1562.69
519.672	1361.69
519.773	1379.69
519.874	1459.69
519.975	1494.69
520.076	1405.69
520.177	1520.69
520.278	1484.69
520.379	1461.69
520.48	1384.69
520.581	1418.69
520.682	1412.69
520.783	1419.69
520.884	1502.69
520.985	1479.69
521.086	1405.69
521.187	1483.69
521.288	1410.69
521.389	1381.69
521.489	1466.69
521.59	1426.69
521.691	1395.69
521.792	1329.69
521.893	1591.69
521.994	1470.69
522.095	1456.69
522.195	1542.69
522.296	1480.69
522.397	1471.69
522.498	1514.69
522.599	1385.69
522.699	1417.69
522.8	1484.69
522.901	1492.69
523.002	1417.69
523.102	1601.69
523.203	1509.69
523.304	1512.69
523.405	1391.69
523.505	1472.69
523.606	1410.69
523.707	1480.69
523.807	1469.69
523.908	1404.69
524.009	1528.69
524.109	1484.69
524.21	1464.69
524.31	1480.69
524.411	1554.69
524.512	1602.69
524.612	1548.69
524.713	1606.69
524.813	1514.69
524.914	1637.69
525.014	6011.69
525.115	1904.69
525.216	1401.69
525.316	1473.69
525.417	1485.69
525.517	1444.69
525.618	1452.69
525.718	1423.69
525.819	1474.69
525.919	1519.69
526.019	1417.69
526.12	1552.69
526.22	1407.69
526.321	1425.69
526.421	1423.69
526.522	1390.69
526.622	1388.69
526.722	1403.69
526.823	1428.69
526.923	1496.69
527.023	1518.69
527.124	1411.69
527.224	1475.69
527.324	1339.69
527.425	1485.69
527.525	1375.69
527.625	1435.69
527.726	1433.69
527.826	1474.69
527.926	1385.69
528.026	1466.69
528.127	1406.69
528.227	1411.69
528.327	1511.69
528.427	1451.69
528.528	1417.69
528.628	1466.69
528.728	1442.69
528.828	1495.69
528.928	1466.69
529.029	1494.69
529.129	1491.69
529.229	1479.69
529.329	1518.69
529.429	1452.69
529.529	1482.69
529.629	1516.69
529.729	1434.69
529.829	1491.69
529.93	1374.69
530.03	1474.69
530.13	1440.69
530.23	1426.69
530.33	1463.69
530.43	1414.69
530.53	1407.69
530.63	1414.69
530.73	1334.69
530.83	1355.69
530.93	1366.69
531.03	1354.69
531.13	1401.69
531.23	1335.69
531.33	1446.69
531.429	1429.69
531.529	1414.69
531.629	1410.69
531.729	1287.69
531.829	1318.69
531.929	1368.69
532.029	1390.69
532.129	1338.69
532.229	1378.69
532.328	1356.69
532.428	1340.69
532.528	1338.69
532.628	1396.69
532.728	1355.69
532.827	1303.69
532.927	1428.69
533.027	1312.69
533.127	1441.69
533.227	1416.69
533.326	1345.69
533.426	1286.69
533.526	1461.69
533.625	1468.69
533.725	1533.69
533.825	1427.69
533.924	1283.69
534.024	1187.69
534.124	1234.69
534.223	1338.69
534.323	1591.69
534.423	1293.69
534.522	1312.69
534.622	1172.69
534.722	1231.69
534.821	1296.69
534.921	1212.69
535.02	1234.69
535.12	1366.69
535.219	1334.69
535.319	1292.69
535.419	1295.69
535.518	1207.69
535.618	1258.69
535.717	1299.69
535.817	1224.69
535.916	1083.69
536.016	1278.69
536.115	1194.69
536.215	1177.69
536.314	1123.69
536.413	1170.69
536.513	1150.69
536.612	1117.69
536.712	1112.69
536.811	1139.69
536.91	1068.69
537.01	1121.69
537.109	1187.69
537.209	1090.69
537.308	1091.69
537.407	1167.69
537.507	1112.69
537.606	1139.69
537.705	1234.69
537.805	1138.69
537.904	1038.69
538.003	1198.69
538.102	1215.69
538.202	1146.69
538.301	1159.69
538.4	1157.69
538.499	1121.69
538.599	1161.69
538.698	1321.69
