Data from sinsal_HRC06701__15__76.txt Node

Date: Thu Apr 18 01:41:18 CDT 2024
User: Estudiantes 2
Spectrometer: HR+C0670
Trigger mode: 4
Integration Time (sec): 1.000000E0
Scans to average: 1
Electric dark correction enabled: true
Nonlinearity correction enabled: false
Boxcar width: 0
XAxis mode: Wavelengths
Number of Pixels in Spectrum: 2048
>>>>>Begin Spectral Data<<<<<
407.81	-141.62
407.921	-141.62
408.032	-141.62
408.143	-117.62
408.254	-101.62
408.365	23.38
408.476	227.38
408.587	-3.62
408.699	13.38
408.81	-40.62
408.921	-46.62
409.032	4.38
409.143	12.38
409.254	7.38
409.365	133.38
409.476	-37.62
409.587	-3.62
409.698	71.38
409.809	62.38
409.92	-44.62
410.031	-20.62
410.142	51.38
410.253	-27.62
410.364	7.38
410.475	461.38
410.585	2232.38
410.696	2427.38
410.807	2399.38
410.918	2299.38
411.029	2406.38
411.14	2500.38
411.251	2395.38
411.362	2489.38
411.472	2472.38
411.583	2469.38
411.694	2491.38
411.805	2447.38
411.916	2469.38
412.026	2519.38
412.137	2545.38
412.248	2476.38
412.359	2459.38
412.47	2351.38
412.58	2427.38
412.691	2417.38
412.802	2328.38
412.912	2447.38
413.023	2416.38
413.134	2393.38
413.245	2463.38
413.355	2412.38
413.466	2381.38
413.577	2356.38
413.687	2487.38
413.798	2257.38
413.909	2484.38
414.019	2496.38
414.13	2406.38
414.24	2325.38
414.351	2507.38
414.462	2619.38
414.572	2445.38
414.683	2551.38
414.793	2408.38
414.904	2677.38
415.014	2398.38
415.125	2508.38
415.235	2461.38
415.346	2560.38
415.456	2608.38
415.567	2451.38
415.677	2472.38
415.788	2530.38
415.898	2432.38
416.009	2356.38
416.119	2502.38
416.23	2390.38
416.34	2374.38
416.45	2425.38
416.561	2876.38
416.671	2419.38
416.782	2380.38
416.892	2459.38
417.002	2449.38
417.113	2462.38
417.223	2532.38
417.333	2445.38
417.444	2433.38
417.554	2599.38
417.664	2647.38
417.775	2457.38
417.885	2600.38
417.995	2534.38
418.106	2703.38
418.216	2500.38
418.326	2747.38
418.436	2727.38
418.547	2660.38
418.657	2723.38
418.767	2831.38
418.877	2757.38
418.987	2798.38
419.098	2788.38
419.208	2824.38
419.318	2847.38
419.428	2862.38
419.538	2763.38
419.648	2793.38
419.759	2820.38
419.869	2859.38
419.979	2694.38
420.089	2846.38
420.199	2811.38
420.309	2764.38
420.419	2884.38
420.529	2773.38
420.639	2904.38
420.749	2862.38
420.859	2889.38
420.969	2903.38
421.079	3107.38
421.189	2938.38
421.299	2881.38
421.409	2825.38
421.519	3007.38
421.629	2976.38
421.739	2956.38
421.849	2970.38
421.959	2940.38
422.069	3028.38
422.179	3007.38
422.289	2979.38
422.399	3072.38
422.509	3109.38
422.619	4872.38
422.729	3295.38
422.838	3080.38
422.948	3234.38
423.058	3174.38
423.168	3144.38
423.278	3273.38
423.388	3254.38
423.498	3424.38
423.607	3339.38
423.717	3627.38
423.827	3475.38
423.937	3378.38
424.046	3454.38
424.156	3443.38
424.266	3442.38
424.376	3617.38
424.485	3582.38
424.595	3485.38
424.705	3540.38
424.815	3483.38
424.924	3788.38
425.034	3536.38
425.144	3448.38
425.253	3504.38
425.363	3598.38
425.473	3622.38
425.582	3552.38
425.692	3570.38
425.801	3649.38
425.911	3726.38
426.021	3763.38
426.13	3863.38
426.24	3799.38
426.349	3830.38
426.459	3807.38
426.568	3759.38
426.678	3789.38
426.787	3831.38
426.897	3706.38
427.006	3833.38
427.116	3847.38
427.225	3940.38
427.335	3930.38
427.444	3835.38
427.554	3882.38
427.663	3884.38
427.773	3955.38
427.882	4023.38
427.992	3902.38
428.101	4032.38
428.21	4016.38
428.32	4106.38
428.429	4053.38
428.539	4286.38
428.648	4083.38
428.757	4039.38
428.867	4227.38
428.976	4324.38
429.085	4176.38
429.195	4174.38
429.304	4216.38
429.413	4240.38
429.523	4311.38
429.632	4270.38
429.741	4290.38
429.85	4238.38
429.96	4292.38
430.069	4333.38
430.178	4284.38
430.287	4515.38
430.397	4435.38
430.506	4278.38
430.615	4364.38
430.724	4436.38
430.833	4474.38
430.943	4348.38
431.052	4476.38
431.161	4564.38
431.27	4552.38
431.379	4587.38
431.488	4839.38
431.597	4699.38
431.706	4776.38
431.816	4816.38
431.925	4777.38
432.034	4682.38
432.143	4846.38
432.252	4695.38
432.361	4757.38
432.47	4738.38
432.579	4658.38
432.688	4732.38
432.797	4744.38
432.906	4650.38
433.015	4775.38
433.124	5026.38
433.233	4879.38
433.342	4770.38
433.451	4835.38
433.56	4822.38
433.669	4851.38
433.778	4766.38
433.886	4980.38
433.995	4799.38
434.104	4940.38
434.213	4961.38
434.322	4985.38
434.431	5142.38
434.54	5260.38
434.649	5448.38
434.757	5303.38
434.866	5161.38
434.975	5243.38
435.084	5115.38
435.193	5029.38
435.301	5296.38
435.41	5114.38
435.519	5165.38
435.628	4678.38
435.737	4624.38
435.845	4567.38
435.954	4497.38
436.063	4547.38
436.171	4582.38
436.28	4549.38
436.389	4676.38
436.498	4548.38
436.606	4505.38
436.715	4674.38
436.823	4331.38
436.932	4333.38
437.041	4333.38
437.149	4404.38
437.258	4280.38
437.367	4212.38
437.475	4252.38
437.584	4446.38
437.692	4232.38
437.801	5502.38
437.91	4278.38
438.018	4152.38
438.127	4166.38
438.235	4175.38
438.344	4103.38
438.452	4167.38
438.561	4049.38
438.669	4075.38
438.778	4063.38
438.886	4093.38
438.995	3985.38
439.103	4072.38
439.212	4203.38
439.32	3976.38
439.428	4054.38
439.537	4053.38
439.645	4194.38
439.754	4183.38
439.862	4141.38
439.97	4117.38
440.079	4121.38
440.187	4150.38
440.295	4344.38
440.404	4228.38
440.512	4207.38
440.62	4301.38
440.729	4299.38
440.837	4347.38
440.945	4906.38
441.054	4483.38
441.162	4369.38
441.27	4645.38
441.378	4581.38
441.487	4590.38
441.595	4975.38
441.703	4724.38
441.811	4539.38
441.92	4492.38
442.028	4454.38
442.136	4412.38
442.244	4471.38
442.352	4534.38
442.461	4328.38
442.569	4331.38
442.677	4416.38
442.785	4433.38
442.893	4310.38
443.001	4343.38
443.109	4320.38
443.217	4336.38
443.325	4358.38
443.434	4844.38
443.542	4620.38
443.65	4471.38
443.758	4651.38
443.866	4613.38
443.974	4840.38
444.082	4759.38
444.19	4788.38
444.298	4822.38
444.406	4934.38
444.514	5132.38
444.622	5183.38
444.73	5174.38
444.838	5108.38
444.946	5030.38
445.054	4862.38
445.161	4761.38
445.269	4556.38
445.377	4683.38
445.485	4665.38
445.593	4546.38
445.701	4641.38
445.809	4627.38
445.917	4535.38
446.025	4511.38
446.132	4615.38
446.24	4544.38
446.348	4563.38
446.456	4381.38
446.564	4402.38
446.671	4483.38
446.779	4392.38
446.887	4438.38
446.995	4392.38
447.102	4436.38
447.21	4486.38
447.318	4339.38
447.426	4353.38
447.533	4577.38
447.641	5405.38
447.749	4484.38
447.856	4388.38
447.964	4452.38
448.072	4456.38
448.179	4300.38
448.287	4496.38
448.395	4423.38
448.502	4312.38
448.61	4422.38
448.718	4331.38
448.825	4386.38
448.933	4459.38
449.04	4297.38
449.148	4492.38
449.256	4532.38
449.363	4483.38
449.471	4482.38
449.578	4672.38
449.686	4553.38
449.793	4764.38
449.901	4552.38
450.008	4761.38
450.116	4740.38
450.223	4658.38
450.331	4899.38
450.438	4900.38
450.546	4943.38
450.653	4992.38
450.76	5175.38
450.868	5075.38
450.975	5194.38
451.083	5052.38
451.19	5234.38
451.297	5027.38
451.405	5186.38
451.512	5218.38
451.619	5306.38
451.727	5309.38
451.834	5123.38
451.941	5199.38
452.049	5154.38
452.156	5214.38
452.263	5242.38
452.371	5209.38
452.478	5255.38
452.585	5329.38
452.692	5236.38
452.8	5389.38
452.907	5548.38
453.014	5328.38
453.121	5448.38
453.229	5377.38
453.336	5431.38
453.443	5627.38
453.55	5494.38
453.657	5468.38
453.765	5577.38
453.872	5538.38
453.979	5538.38
454.086	5644.38
454.193	5737.38
454.3	5479.38
454.407	5672.38
454.514	5617.38
454.621	5507.38
454.729	5533.38
454.836	5739.38
454.943	5797.38
455.05	5640.38
455.157	5799.38
455.264	5623.38
455.371	5759.38
455.478	5740.38
455.585	6992.38
455.692	5885.38
455.799	6040.38
455.906	5774.38
456.013	5911.38
456.12	5819.38
456.227	5908.38
456.334	5984.38
456.44	6013.38
456.547	5953.38
456.654	5900.38
456.761	6124.38
456.868	6144.38
456.975	6248.38
457.082	6159.38
457.189	5975.38
457.296	6155.38
457.402	6253.38
457.509	6076.38
457.616	6373.38
457.723	6539.38
457.83	6329.38
457.936	6392.38
458.043	6711.38
458.15	6477.38
458.257	6675.38
458.363	6639.38
458.47	6697.38
458.577	6865.38
458.684	6892.38
458.79	7076.38
458.897	7154.38
459.004	7420.38
459.11	7256.38
459.217	7301.38
459.324	7503.38
459.43	7454.38
459.537	7712.38
459.644	7835.38
459.75	7683.38
459.857	8020.38
459.964	7940.38
460.07	7890.38
460.177	7999.38
460.283	8096.38
460.39	8339.38
460.496	8126.38
460.603	8157.38
460.71	8100.38
460.816	8257.38
460.923	8027.38
461.029	8068.38
461.136	8193.38
461.242	8060.38
461.349	8119.38
461.455	8141.38
461.562	8431.38
461.668	8315.38
461.774	8357.38
461.881	8291.38
461.987	8433.38
462.094	8578.38
462.2	8642.38
462.307	8707.38
462.413	8687.38
462.519	8915.38
462.626	9460.38
462.732	9330.38
462.838	9761.38
462.945	9977.38
463.051	9912.38
463.157	9948.38
463.264	9558.38
463.37	9426.38
463.476	9471.38
463.583	9124.38
463.689	8929.38
463.795	9107.38
463.901	9072.38
464.008	9215.38
464.114	9097.38
464.22	9085.38
464.326	9018.38
464.433	8695.38
464.539	8544.38
464.645	8327.38
464.751	8421.38
464.857	8097.38
464.963	7900.38
465.07	7795.38
465.176	7447.38
465.282	7232.38
465.388	7105.38
465.494	6845.38
465.6	6779.38
465.706	6615.38
465.812	6554.38
465.918	6581.38
466.024	6451.38
466.131	6345.38
466.237	6299.38
466.343	6111.38
466.449	6027.38
466.555	5935.38
466.661	5856.38
466.767	5791.38
466.873	5794.38
466.979	5877.38
467.085	5722.38
467.191	5770.38
467.296	5803.38
467.402	5616.38
467.508	5599.38
467.614	5730.38
467.72	5515.38
467.826	5395.38
467.932	5314.38
468.038	5275.38
468.144	5316.38
468.25	5282.38
468.355	5196.38
468.461	5193.38
468.567	5204.38
468.673	5210.38
468.779	5126.38
468.885	5121.38
468.99	5139.38
469.096	5175.38
469.202	5253.38
469.308	5188.38
469.413	5231.38
469.519	5317.38
469.625	5284.38
469.731	5274.38
469.836	5239.38
469.942	5474.38
470.048	5361.38
470.153	5378.38
470.259	5384.38
470.365	5476.38
470.47	5377.38
470.576	5297.38
470.682	5259.38
470.787	5100.38
470.893	4996.38
470.999	5061.38
471.104	5056.38
471.21	4861.38
471.315	4825.38
471.421	4766.38
471.527	4984.38
471.632	4837.38
471.738	4886.38
471.843	4612.38
471.949	4608.38
472.054	4782.38
472.16	4557.38
472.265	4539.38
472.371	4567.38
472.476	4580.38
472.582	4547.38
472.687	4480.38
472.793	4441.38
472.898	4385.38
473.003	4333.38
473.109	4396.38
473.214	4333.38
473.32	4303.38
473.425	4387.38
473.53	4312.38
473.636	4270.38
473.741	4343.38
473.847	4239.38
473.952	4310.38
474.057	4363.38
474.163	4346.38
474.268	4191.38
474.373	4280.38
474.478	4347.38
474.584	4215.38
474.689	4264.38
474.794	4334.38
474.9	4431.38
475.005	4158.38
475.11	4466.38
475.215	4295.38
475.321	4261.38
475.426	4453.38
475.531	4418.38
475.636	4307.38
475.741	4323.38
475.846	4433.38
475.952	4451.38
476.057	4361.38
476.162	4481.38
476.267	4460.38
476.372	4580.38
476.477	4421.38
476.582	4476.38
476.687	4377.38
476.793	4461.38
476.898	4498.38
477.003	4488.38
477.108	4593.38
477.213	4604.38
477.318	4563.38
477.423	4652.38
477.528	4794.38
477.633	4678.38
477.738	4646.38
477.843	4685.38
477.948	4837.38
478.053	4745.38
478.158	4916.38
478.263	4955.38
478.368	4942.38
478.473	4993.38
478.578	5083.38
478.682	4932.38
478.787	5015.38
478.892	5012.38
478.997	5075.38
479.102	5029.38
479.207	5146.38
479.312	5166.38
479.417	5066.38
479.521	5166.38
479.626	5238.38
479.731	5276.38
479.836	5203.38
479.941	5404.38
480.045	5426.38
480.15	5407.38
480.255	5534.38
480.36	5414.38
480.465	5564.38
480.569	5676.38
480.674	5310.38
480.779	5282.38
480.883	5371.38
480.988	5318.38
481.093	5303.38
481.197	5276.38
481.302	5312.38
481.407	5265.38
481.511	6831.38
481.616	5448.38
481.721	5220.38
481.825	5428.38
481.93	5335.38
482.035	5175.38
482.139	5324.38
482.244	5313.38
482.348	5330.38
482.453	5239.38
482.557	5355.38
482.662	5299.38
482.767	5406.38
482.871	5298.38
482.976	5374.38
483.08	5491.38
483.185	5596.38
483.289	5646.38
483.394	5591.38
483.498	5543.38
483.603	5702.38
483.707	5684.38
483.811	5681.38
483.916	5728.38
484.02	5672.38
484.125	5867.38
484.229	5810.38
484.333	5913.38
484.438	5814.38
484.542	5933.38
484.647	5966.38
484.751	5960.38
484.855	6092.38
484.96	6128.38
485.064	6180.38
485.168	6216.38
485.273	6082.38
485.377	6123.38
485.481	6442.38
485.585	6257.38
485.69	6438.38
485.794	6406.38
485.898	6339.38
486.002	6376.38
486.107	6404.38
486.211	6316.38
486.315	6591.38
486.419	6540.38
486.524	6467.38
486.628	6464.38
486.732	6468.38
486.836	6409.38
486.94	6567.38
487.044	6523.38
487.148	6534.38
487.253	6433.38
487.357	6561.38
487.461	6676.38
487.565	6425.38
487.669	6567.38
487.773	6374.38
487.877	6592.38
487.981	6563.38
488.085	6431.38
488.189	6484.38
488.293	6552.38
488.397	6763.38
488.501	6490.38
488.605	6442.38
488.709	6472.38
488.813	6568.38
488.917	6412.38
489.021	6513.38
489.125	6658.38
489.229	6471.38
489.333	6721.38
489.437	6582.38
489.541	6583.38
489.645	6550.38
489.749	6749.38
489.853	6671.38
489.956	6541.38
490.06	6677.38
490.164	6595.38
490.268	6550.38
490.372	6697.38
490.476	6413.38
490.579	6599.38
490.683	7326.38
490.787	6628.38
490.891	6539.38
490.995	6630.38
491.098	6627.38
491.202	6609.38
491.306	6671.38
491.41	6696.38
491.513	6462.38
491.617	6574.38
491.721	6794.38
491.824	6742.38
491.928	6565.38
492.032	6821.38
492.136	6611.38
492.239	6531.38
492.343	6700.38
492.446	7008.38
492.55	6631.38
492.654	6545.38
492.757	6641.38
492.861	6893.38
492.965	6670.38
493.068	6756.38
493.172	6652.38
493.275	6636.38
493.379	6667.38
493.482	6774.38
493.586	6788.38
493.689	6874.38
493.793	6753.38
493.896	6722.38
494	6705.38
494.103	6736.38
494.207	6872.38
494.31	6959.38
494.414	6848.38
494.517	6606.38
494.621	6583.38
494.724	6672.38
494.828	6629.38
494.931	6524.38
495.034	6552.38
495.138	6683.38
495.241	6553.38
495.345	7250.38
495.448	6676.38
495.551	6498.38
495.655	6483.38
495.758	6514.38
495.861	6488.38
495.965	6443.38
496.068	6685.38
496.171	6592.38
496.274	6661.38
496.378	6620.38
496.481	6549.38
496.584	6586.38
496.687	6720.38
496.791	6528.38
496.894	6693.38
496.997	6774.38
497.1	6809.38
497.204	6722.38
497.307	6838.38
497.41	7115.38
497.513	7061.38
497.616	6943.38
497.719	7102.38
497.823	7165.38
497.926	7159.38
498.029	7399.38
498.132	7486.38
498.235	7528.38
498.338	7825.38
498.441	7843.38
498.544	8054.38
498.647	8229.38
498.75	8600.38
498.853	8923.38
498.956	8888.38
499.059	9359.38
499.163	9240.38
499.266	9823.38
499.369	10229.38
499.471	10443.38
499.574	11026.38
499.677	11144.38
499.78	11751.38
499.883	12186.38
499.986	12739.38
500.089	13265.38
500.192	13266.38
500.295	13570.38
500.398	13608.38
500.501	13333.38
500.604	13016.38
500.707	12662.38
500.809	12149.38
500.912	11765.38
501.015	11291.38
501.118	10629.38
501.221	10326.38
501.324	9677.38
501.426	9463.38
501.529	8990.38
501.632	8733.38
501.735	8391.38
501.837	8225.38
501.94	7936.38
502.043	7817.38
502.146	7507.38
502.248	7423.38
502.351	7297.38
502.454	7133.38
502.557	6920.38
502.659	6779.38
502.762	6701.38
502.865	6547.38
502.967	6347.38
503.07	6299.38
503.173	6243.38
503.275	6160.38
503.378	6053.38
503.48	5892.38
503.583	5993.38
503.686	5929.38
503.788	6146.38
503.891	5905.38
503.993	6112.38
504.096	5837.38
504.198	5989.38
504.301	5860.38
504.403	5904.38
504.506	5820.38
504.608	5767.38
504.711	5670.38
504.813	5527.38
504.916	5364.38
505.018	5257.38
505.121	5181.38
505.223	5175.38
505.326	4996.38
505.428	5186.38
505.531	4955.38
505.633	4882.38
505.735	4848.38
505.838	4808.38
505.94	4719.38
506.042	4689.38
506.145	4568.38
506.247	4733.38
506.35	4638.38
506.452	4699.38
506.554	4636.38
506.656	4718.38
506.759	4547.38
506.861	4501.38
506.963	4439.38
507.066	4505.38
507.168	4549.38
507.27	4463.38
507.372	4402.38
507.475	4488.38
507.577	4374.38
507.679	4309.38
507.781	4305.38
507.883	4330.38
507.986	4306.38
508.088	4375.38
508.19	4320.38
508.292	4258.38
508.394	4176.38
508.496	4151.38
508.598	4131.38
508.701	4205.38
508.803	4240.38
508.905	4096.38
509.007	4212.38
509.109	4179.38
509.211	4206.38
509.313	4188.38
509.415	4079.38
509.517	4148.38
509.619	4184.38
509.721	4222.38
509.823	4062.38
509.925	4243.38
510.027	4078.38
510.129	4092.38
510.231	4147.38
510.333	4121.38
510.435	3988.38
510.537	4181.38
510.639	4254.38
510.741	4059.38
510.843	4050.38
510.945	4058.38
511.047	4108.38
511.148	4124.38
511.25	4078.38
511.352	4104.38
511.454	4083.38
511.556	4178.38
511.658	4103.38
511.76	4190.38
511.861	4176.38
511.963	4110.38
512.065	3966.38
512.167	4027.38
512.268	4287.38
512.37	4167.38
512.472	4082.38
512.574	4119.38
512.676	4164.38
512.777	4057.38
512.879	3988.38
512.981	4122.38
513.082	4112.38
513.184	4129.38
513.286	4498.38
513.387	4251.38
513.489	4194.38
513.591	4250.38
513.692	4292.38
513.794	4195.38
513.896	4091.38
513.997	4181.38
514.099	4150.38
514.2	4248.38
514.302	4331.38
514.404	4226.38
514.505	4229.38
514.607	4331.38
514.708	4259.38
514.81	4371.38
514.911	4381.38
515.013	4433.38
515.114	4439.38
515.216	4362.38
515.317	4518.38
515.419	4431.38
515.52	4572.38
515.622	4534.38
515.723	4580.38
515.825	4707.38
515.926	4677.38
516.027	4678.38
516.129	4676.38
516.23	4896.38
516.332	4838.38
516.433	4986.38
516.534	5089.38
516.636	5040.38
516.737	5237.38
516.838	6083.38
516.94	5476.38
517.041	5531.38
517.142	5508.38
517.244	5768.38
517.345	5747.38
517.446	5713.38
517.547	5934.38
517.649	5828.38
517.75	5888.38
517.851	5845.38
517.952	6146.38
518.054	5827.38
518.155	5856.38
518.256	5590.38
518.357	5640.38
518.458	5429.38
518.56	5397.38
518.661	5258.38
518.762	5246.38
518.863	5334.38
518.964	5279.38
519.065	5055.38
519.166	5070.38
519.268	5050.38
519.369	5109.38
519.47	4881.38
519.571	4991.38
519.672	4729.38
519.773	4790.38
519.874	4880.38
519.975	4765.38
520.076	4815.38
520.177	4905.38
520.278	4804.38
520.379	4742.38
520.48	4770.38
520.581	4754.38
520.682	4686.38
520.783	4740.38
520.884	4834.38
520.985	4664.38
521.086	4677.38
521.187	4696.38
521.288	4668.38
521.389	4667.38
521.489	4686.38
521.59	4671.38
521.691	4655.38
521.792	4687.38
521.893	4702.38
521.994	4711.38
522.095	4630.38
522.195	4765.38
522.296	4702.38
522.397	4620.38
522.498	4686.38
522.599	4548.38
522.699	4618.38
522.8	4689.38
522.901	4705.38
523.002	4717.38
523.102	4844.38
523.203	4771.38
523.304	4728.38
523.405	4674.38
523.505	4723.38
523.606	4651.38
523.707	4643.38
523.807	4676.38
523.908	4644.38
524.009	4628.38
524.109	4693.38
524.21	4639.38
524.31	4648.38
524.411	4820.38
524.512	4804.38
524.612	4710.38
524.713	4910.38
524.813	4610.38
524.914	4748.38
525.014	9395.38
525.115	5085.38
525.216	4632.38
525.316	4688.38
525.417	4723.38
525.517	4627.38
525.618	4677.38
525.718	4690.38
525.819	4561.38
525.919	4774.38
526.019	4680.38
526.12	4668.38
526.22	4559.38
526.321	4554.38
526.421	4595.38
526.522	4595.38
526.622	4569.38
526.722	4687.38
526.823	4524.38
526.923	4539.38
527.023	4763.38
527.124	4436.38
527.224	4663.38
527.324	4564.38
527.425	4630.38
527.525	4506.38
527.625	4548.38
527.726	4575.38
527.826	4658.38
527.926	4611.38
528.026	4664.38
528.127	4535.38
528.227	4608.38
528.327	4710.38
528.427	4563.38
528.528	4632.38
528.628	4716.38
528.728	4546.38
528.828	4587.38
528.928	4696.38
529.029	4570.38
529.129	4626.38
529.229	4587.38
529.329	4555.38
529.429	4612.38
529.529	4663.38
529.629	4525.38
529.729	4461.38
529.829	4586.38
529.93	4672.38
530.03	4509.38
530.13	4429.38
530.23	4525.38
530.33	4487.38
530.43	4397.38
530.53	4532.38
530.63	4556.38
530.73	4343.38
530.83	4268.38
530.93	4397.38
531.03	4253.38
531.13	4453.38
531.23	4402.38
531.33	4370.38
531.429	4461.38
531.529	4353.38
531.629	4364.38
531.729	4318.38
531.829	4354.38
531.929	4318.38
532.029	4410.38
532.129	4287.38
532.229	4428.38
532.328	4347.38
532.428	4275.38
532.528	4203.38
532.628	4194.38
532.728	4274.38
532.827	4184.38
532.927	4296.38
533.027	4207.38
533.127	4363.38
533.227	4289.38
533.326	4258.38
533.426	4151.38
533.526	4337.38
533.625	4269.38
533.725	4408.38
533.825	4303.38
533.924	3994.38
534.024	4070.38
534.124	4107.38
534.223	4147.38
534.323	4360.38
534.423	4058.38
534.522	4009.38
534.622	3951.38
534.722	3989.38
534.821	3937.38
534.921	3860.38
535.02	3885.38
535.12	3936.38
535.219	4038.38
535.319	4084.38
535.419	4027.38
535.518	3927.38
535.618	3837.38
535.717	3912.38
535.817	3756.38
535.916	3681.38
536.016	3800.38
536.115	3796.38
536.215	3663.38
536.314	3638.38
536.413	3653.38
536.513	3608.38
536.612	3630.38
536.712	3609.38
536.811	3601.38
536.91	3568.38
537.01	3598.38
537.109	3594.38
537.209	3528.38
537.308	3497.38
537.407	3533.38
537.507	3566.38
537.606	3462.38
537.705	3636.38
537.805	3476.38
