Data from sinsal_HRC06701__36__97.txt Node

Date: Thu Apr 18 01:41:39 CDT 2024
User: Estudiantes 2
Spectrometer: HR+C0670
Trigger mode: 4
Integration Time (sec): 1.000000E0
Scans to average: 1
Electric dark correction enabled: true
Nonlinearity correction enabled: false
Boxcar width: 0
XAxis mode: Wavelengths
Number of Pixels in Spectrum: 2048
>>>>>Begin Spectral Data<<<<<
407.81	-126.94
407.921	-126.94
408.032	-126.94
408.143	-121.94
408.254	-99.94
408.365	3.06
408.476	210.06
408.587	4.06
408.699	-15.94
408.81	-6.94
408.921	21.06
409.032	-46.94
409.143	31.06
409.254	47.06
409.365	64.06
409.476	-47.94
409.587	17.06
409.698	69.06
409.809	39.06
409.92	-26.94
410.031	47.06
410.142	77.06
410.253	29.06
410.364	94.06
410.475	133.06
410.585	913.06
410.696	1077.06
410.807	988.06
410.918	946.06
411.029	1069.06
411.14	1072.06
411.251	1017.06
411.362	1071.06
411.472	1115.06
411.583	1024.06
411.694	1077.06
411.805	1058.06
411.916	1065.06
412.026	1057.06
412.137	1068.06
412.248	1064.06
412.359	1041.06
412.47	998.06
412.58	943.06
412.691	998.06
412.802	1022.06
412.912	1028.06
413.023	1047.06
413.134	1031.06
413.245	1134.06
413.355	1001.06
413.466	973.06
413.577	1088.06
413.687	1058.06
413.798	968.06
413.909	1110.06
414.019	1026.06
414.13	1005.06
414.24	1017.06
414.351	1090.06
414.462	1162.06
414.572	1090.06
414.683	1118.06
414.793	1020.06
414.904	1246.06
415.014	1056.06
415.125	995.06
415.235	1094.06
415.346	1163.06
415.456	1162.06
415.567	1038.06
415.677	1046.06
415.788	1073.06
415.898	987.06
416.009	1008.06
416.119	1102.06
416.23	1006.06
416.34	1015.06
416.45	1080.06
416.561	1519.06
416.671	1125.06
416.782	998.06
416.892	1007.06
417.002	1057.06
417.113	1093.06
417.223	1044.06
417.333	998.06
417.444	1030.06
417.554	1150.06
417.664	1091.06
417.775	1021.06
417.885	1097.06
417.995	1070.06
418.106	1169.06
418.216	1123.06
418.326	1155.06
418.436	1167.06
418.547	1186.06
418.657	1152.06
418.767	1192.06
418.877	1136.06
418.987	1174.06
419.098	1173.06
419.208	1176.06
419.318	1272.06
419.428	1216.06
419.538	1094.06
419.648	1235.06
419.759	1232.06
419.869	1204.06
419.979	1220.06
420.089	1186.06
420.199	1108.06
420.309	1211.06
420.419	1242.06
420.529	1210.06
420.639	1448.06
420.749	1245.06
420.859	1291.06
420.969	1189.06
421.079	1425.06
421.189	1284.06
421.299	1220.06
421.409	1207.06
421.519	1289.06
421.629	1294.06
421.739	1216.06
421.849	1185.06
421.959	1179.06
422.069	1321.06
422.179	1264.06
422.289	1193.06
422.399	1258.06
422.509	1353.06
422.619	3958.06
422.729	1562.06
422.838	1260.06
422.948	1336.06
423.058	1268.06
423.168	1323.06
423.278	1356.06
423.388	1330.06
423.498	1448.06
423.607	1411.06
423.717	1613.06
423.827	1596.06
423.937	1483.06
424.046	1469.06
424.156	1442.06
424.266	1438.06
424.376	1606.06
424.485	1581.06
424.595	1523.06
424.705	1466.06
424.815	1450.06
424.924	1841.06
425.034	1563.06
425.144	1427.06
425.253	1484.06
425.363	1546.06
425.473	1535.06
425.582	1422.06
425.692	1504.06
425.801	1460.06
425.911	1625.06
426.021	1561.06
426.13	1657.06
426.24	1692.06
426.349	1704.06
426.459	1584.06
426.568	1512.06
426.678	1661.06
426.787	1650.06
426.897	1543.06
427.006	1624.06
427.116	1669.06
427.225	1520.06
427.335	1659.06
427.444	1642.06
427.554	1672.06
427.663	1628.06
427.773	1657.06
427.882	1733.06
427.992	1603.06
428.101	1655.06
428.21	1682.06
428.32	1702.06
428.429	1625.06
428.539	1975.06
428.648	1666.06
428.757	1678.06
428.867	1751.06
428.976	1829.06
429.085	1744.06
429.195	1721.06
429.304	1816.06
429.413	1771.06
429.523	1820.06
429.632	1904.06
429.741	1758.06
429.85	1665.06
429.96	1832.06
430.069	1780.06
430.178	1758.06
430.287	2064.06
430.397	1790.06
430.506	1732.06
430.615	1823.06
430.724	1870.06
430.833	1915.06
430.943	1850.06
431.052	1955.06
431.161	1856.06
431.27	1841.06
431.379	1924.06
431.488	2056.06
431.597	1931.06
431.706	2049.06
431.816	1940.06
431.925	1987.06
432.034	1968.06
432.143	2032.06
432.252	1960.06
432.361	1953.06
432.47	1996.06
432.579	1924.06
432.688	1929.06
432.797	1994.06
432.906	1884.06
433.015	2015.06
433.124	2300.06
433.233	2007.06
433.342	2008.06
433.451	2052.06
433.56	1962.06
433.669	1949.06
433.778	1977.06
433.886	1986.06
433.995	1957.06
434.104	2155.06
434.213	2105.06
434.322	2028.06
434.431	2200.06
434.54	2240.06
434.649	2252.06
434.757	2173.06
434.866	2258.06
434.975	2193.06
435.084	2239.06
435.193	2143.06
435.301	2272.06
435.41	2306.06
435.519	2387.06
435.628	2011.06
435.737	1905.06
435.845	1894.06
435.954	1886.06
436.063	1877.06
436.171	1879.06
436.28	1901.06
436.389	1985.06
436.498	1884.06
436.606	1935.06
436.715	1969.06
436.823	1792.06
436.932	1804.06
437.041	1864.06
437.149	1789.06
437.258	1740.06
437.367	1751.06
437.475	1694.06
437.584	1890.06
437.692	1793.06
437.801	2903.06
437.91	1834.06
438.018	1731.06
438.127	1702.06
438.235	1769.06
438.344	1745.06
438.452	1719.06
438.561	1664.06
438.669	1651.06
438.778	1684.06
438.886	1700.06
438.995	1687.06
439.103	1685.06
439.212	1720.06
439.32	1665.06
439.428	1712.06
439.537	1693.06
439.645	1775.06
439.754	1756.06
439.862	1674.06
439.97	1700.06
440.079	1725.06
440.187	1706.06
440.295	1863.06
440.404	1705.06
440.512	1746.06
440.62	1760.06
440.729	1786.06
440.837	1856.06
440.945	2348.06
441.054	1886.06
441.162	1877.06
441.27	1934.06
441.378	1857.06
441.487	1916.06
441.595	2258.06
441.703	1959.06
441.811	1876.06
441.92	1899.06
442.028	1735.06
442.136	1833.06
442.244	1872.06
442.352	1839.06
442.461	1698.06
442.569	1775.06
442.677	1802.06
442.785	1830.06
442.893	1779.06
443.001	1778.06
443.109	1754.06
443.217	1735.06
443.325	1871.06
443.434	2231.06
443.542	2042.06
443.65	1913.06
443.758	1953.06
443.866	1839.06
443.974	2149.06
444.082	2010.06
444.19	1937.06
444.298	2059.06
444.406	2118.06
444.514	2041.06
444.622	2123.06
444.73	2146.06
444.838	2098.06
444.946	2066.06
445.054	2046.06
445.161	1933.06
445.269	1863.06
445.377	2015.06
445.485	1961.06
445.593	1903.06
445.701	2062.06
445.809	1943.06
445.917	1830.06
446.025	1835.06
446.132	2003.06
446.24	1845.06
446.348	1834.06
446.456	1787.06
446.564	1788.06
446.671	1761.06
446.779	1812.06
446.887	1747.06
446.995	1784.06
447.102	1821.06
447.21	1842.06
447.318	1757.06
447.426	1733.06
447.533	2021.06
447.641	2776.06
447.749	1860.06
447.856	1881.06
447.964	1856.06
448.072	1887.06
448.179	1866.06
448.287	1789.06
448.395	1765.06
448.502	1806.06
448.61	1835.06
448.718	1732.06
448.825	1812.06
448.933	1858.06
449.04	1776.06
449.148	1924.06
449.256	1943.06
449.363	1834.06
449.471	1869.06
449.578	2001.06
449.686	1850.06
449.793	1995.06
449.901	1939.06
450.008	1971.06
450.116	1945.06
450.223	1950.06
450.331	2050.06
450.438	2017.06
450.546	2027.06
450.653	2130.06
450.76	2139.06
450.868	2121.06
450.975	2371.06
451.083	2046.06
451.19	2122.06
451.297	2085.06
451.405	2098.06
451.512	2043.06
451.619	2215.06
451.727	2215.06
451.834	2159.06
451.941	2099.06
452.049	2176.06
452.156	2175.06
452.263	2189.06
452.371	2234.06
452.478	2202.06
452.585	2364.06
452.692	2175.06
452.8	2208.06
452.907	2348.06
453.014	2224.06
453.121	2276.06
453.229	2243.06
453.336	2351.06
453.443	2335.06
453.55	2174.06
453.657	2233.06
453.765	2337.06
453.872	2244.06
453.979	2411.06
454.086	2318.06
454.193	2319.06
454.3	2217.06
454.407	2393.06
454.514	2458.06
454.621	2309.06
454.729	2309.06
454.836	2336.06
454.943	2419.06
455.05	2416.06
455.157	2489.06
455.264	2317.06
455.371	2449.06
455.478	2435.06
455.585	3463.06
455.692	2551.06
455.799	2604.06
455.906	2356.06
456.013	2400.06
456.12	2440.06
456.227	2508.06
456.334	2465.06
456.44	2555.06
456.547	2469.06
456.654	2385.06
456.761	2542.06
456.868	2612.06
456.975	2588.06
457.082	2460.06
457.189	2473.06
457.296	2522.06
457.402	2407.06
457.509	2486.06
457.616	2567.06
457.723	2719.06
457.83	2580.06
457.936	2604.06
458.043	2860.06
458.15	2588.06
458.257	2764.06
458.363	2753.06
458.47	2730.06
458.577	2829.06
458.684	2743.06
458.79	2918.06
458.897	2921.06
459.004	2997.06
459.11	2915.06
459.217	2946.06
459.324	3031.06
459.43	3105.06
459.537	3292.06
459.644	3122.06
459.75	3076.06
459.857	3443.06
459.964	3294.06
460.07	3199.06
460.177	3335.06
460.283	3396.06
460.39	3481.06
460.496	3345.06
460.603	3343.06
460.71	3364.06
460.816	3291.06
460.923	3286.06
461.029	3309.06
461.136	3322.06
461.242	3263.06
461.349	3247.06
461.455	3210.06
461.562	3475.06
461.668	3294.06
461.774	3378.06
461.881	3412.06
461.987	3397.06
462.094	3524.06
462.2	3516.06
462.307	3583.06
462.413	3489.06
462.519	3466.06
462.626	3841.06
462.732	3823.06
462.838	3996.06
462.945	4048.06
463.051	4161.06
463.157	4045.06
463.264	3899.06
463.37	3848.06
463.476	3786.06
463.583	3650.06
463.689	3622.06
463.795	3657.06
463.901	3763.06
464.008	3859.06
464.114	3739.06
464.22	3626.06
464.326	3544.06
464.433	3564.06
464.539	3439.06
464.645	3380.06
464.751	3553.06
464.857	3421.06
464.963	3201.06
465.07	3112.06
465.176	3062.06
465.282	2893.06
465.388	2955.06
465.494	2736.06
465.6	2771.06
465.706	2608.06
465.812	2676.06
465.918	2732.06
466.024	2621.06
466.131	2682.06
466.237	2548.06
466.343	2429.06
466.449	2439.06
466.555	2452.06
466.661	2339.06
466.767	2355.06
466.873	2416.06
466.979	2475.06
467.085	2359.06
467.191	2437.06
467.296	2316.06
467.402	2274.06
467.508	2363.06
467.614	2472.06
467.72	2184.06
467.826	2250.06
467.932	2259.06
468.038	2169.06
468.144	2191.06
468.25	2225.06
468.355	2104.06
468.461	2169.06
468.567	2182.06
468.673	2110.06
468.779	2231.06
468.885	2135.06
468.99	2128.06
469.096	2086.06
469.202	2209.06
469.308	2219.06
469.413	2131.06
469.519	2193.06
469.625	2210.06
469.731	2202.06
469.836	2193.06
469.942	2423.06
470.048	2211.06
470.153	2250.06
470.259	2264.06
470.365	2321.06
470.47	2239.06
470.576	2207.06
470.682	2221.06
470.787	2127.06
470.893	2033.06
470.999	2173.06
471.104	2121.06
471.21	2047.06
471.315	1997.06
471.421	1948.06
471.527	2057.06
471.632	2067.06
471.738	2030.06
471.843	1868.06
471.949	1961.06
472.054	2027.06
472.16	1886.06
472.265	1928.06
472.371	1893.06
472.476	1808.06
472.582	1882.06
472.687	1868.06
472.793	1764.06
472.898	1843.06
473.003	1847.06
473.109	1772.06
473.214	1727.06
473.32	1799.06
473.425	1899.06
473.53	1764.06
473.636	1750.06
473.741	1828.06
473.847	1745.06
473.952	1794.06
474.057	1837.06
474.163	1824.06
474.268	1808.06
474.373	1912.06
474.478	1753.06
474.584	1722.06
474.689	1880.06
474.794	1800.06
474.9	1970.06
475.005	1788.06
475.11	1935.06
475.215	1764.06
475.321	1779.06
475.426	2001.06
475.531	1888.06
475.636	1820.06
475.741	1765.06
475.846	1902.06
475.952	1953.06
476.057	1845.06
476.162	1923.06
476.267	1923.06
476.372	2001.06
476.477	1893.06
476.582	1915.06
476.687	1825.06
476.793	1909.06
476.898	1830.06
477.003	1916.06
477.108	1934.06
477.213	1834.06
477.318	1831.06
477.423	1969.06
477.528	2024.06
477.633	1983.06
477.738	2003.06
477.843	1929.06
477.948	2020.06
478.053	1992.06
478.158	2006.06
478.263	2068.06
478.368	2050.06
478.473	2220.06
478.578	2121.06
478.682	2028.06
478.787	2182.06
478.892	2129.06
478.997	2150.06
479.102	2180.06
479.207	2064.06
479.312	2242.06
479.417	2138.06
479.521	2160.06
479.626	2158.06
479.731	2167.06
479.836	2224.06
479.941	2319.06
480.045	2314.06
480.15	2352.06
480.255	2310.06
480.36	2341.06
480.465	2371.06
480.569	2458.06
480.674	2244.06
480.779	2244.06
480.883	2218.06
480.988	2237.06
481.093	2178.06
481.197	2255.06
481.302	2197.06
481.407	2256.06
481.511	3815.06
481.616	2320.06
481.721	2208.06
481.825	2393.06
481.93	2172.06
482.035	2165.06
482.139	2219.06
482.244	2240.06
482.348	2224.06
482.453	2252.06
482.557	2304.06
482.662	2250.06
482.767	2219.06
482.871	2290.06
482.976	2276.06
483.08	2377.06
483.185	2442.06
483.289	2331.06
483.394	2359.06
483.498	2349.06
483.603	2383.06
483.707	2358.06
483.811	2450.06
483.916	2503.06
484.02	2424.06
484.125	2496.06
484.229	2546.06
484.333	2492.06
484.438	2484.06
484.542	2549.06
484.647	2466.06
484.751	2578.06
484.855	2560.06
484.96	2563.06
485.064	2633.06
485.168	2612.06
485.273	2620.06
485.377	2658.06
485.481	2829.06
485.585	2758.06
485.69	2653.06
485.794	2778.06
485.898	2791.06
486.002	2729.06
486.107	2757.06
486.211	2756.06
486.315	2778.06
486.419	2770.06
486.524	2748.06
486.628	2827.06
486.732	2740.06
486.836	2727.06
486.94	2864.06
487.044	2814.06
487.148	2763.06
487.253	2754.06
487.357	2769.06
487.461	2909.06
487.565	2804.06
487.669	2817.06
487.773	2750.06
487.877	2807.06
487.981	2826.06
488.085	2813.06
488.189	2772.06
488.293	2898.06
488.397	3170.06
488.501	2767.06
488.605	2745.06
488.709	2791.06
488.813	2755.06
488.917	2803.06
489.021	2799.06
489.125	2911.06
489.229	2724.06
489.333	2885.06
489.437	2790.06
489.541	2748.06
489.645	2840.06
489.749	2831.06
489.853	2789.06
489.956	2876.06
490.06	2839.06
490.164	2784.06
490.268	2898.06
490.372	2834.06
490.476	2784.06
490.579	2835.06
490.683	3356.06
490.787	2871.06
490.891	2804.06
490.995	2858.06
491.098	2823.06
491.202	2776.06
491.306	2923.06
491.41	2794.06
491.513	2802.06
491.617	2880.06
491.721	3020.06
491.824	2956.06
491.928	2813.06
492.032	2981.06
492.136	2819.06
492.239	2757.06
492.343	2883.06
492.446	3166.06
492.55	2868.06
492.654	2852.06
492.757	2777.06
492.861	2806.06
492.965	2838.06
493.068	2900.06
493.172	2851.06
493.275	2854.06
493.379	2776.06
493.482	2867.06
493.586	2909.06
493.689	2989.06
493.793	2781.06
493.896	2957.06
494	2918.06
494.103	2924.06
494.207	3111.06
494.31	3207.06
494.414	2870.06
494.517	2850.06
494.621	2905.06
494.724	2822.06
494.828	2768.06
494.931	2781.06
495.034	2767.06
495.138	2855.06
495.241	2732.06
495.345	3447.06
495.448	2852.06
495.551	2645.06
495.655	2818.06
495.758	2699.06
495.861	2692.06
495.965	2735.06
496.068	2755.06
496.171	2803.06
496.274	2795.06
496.378	2746.06
496.481	2752.06
496.584	2811.06
496.687	2899.06
496.791	2799.06
496.894	2811.06
496.997	2848.06
497.1	2887.06
497.204	2894.06
497.307	2864.06
497.41	2917.06
497.513	3039.06
497.616	2839.06
497.719	2861.06
497.823	2958.06
497.926	2921.06
498.029	3050.06
498.132	2981.06
498.235	3124.06
498.338	3251.06
498.441	3317.06
498.544	3286.06
498.647	3463.06
498.75	3562.06
498.853	3693.06
498.956	3655.06
499.059	3943.06
499.163	3911.06
499.266	3957.06
499.369	4120.06
499.471	4304.06
499.574	4564.06
499.677	4779.06
499.78	4892.06
499.883	5214.06
499.986	5609.06
500.089	5648.06
500.192	5813.06
500.295	5905.06
500.398	5840.06
500.501	5717.06
500.604	5630.06
500.707	5272.06
500.809	5156.06
500.912	5025.06
501.015	4905.06
501.118	4481.06
501.221	4317.06
501.324	4140.06
501.426	3846.06
501.529	3727.06
501.632	3689.06
501.735	3342.06
501.837	3367.06
501.94	3276.06
502.043	3211.06
502.146	3071.06
502.248	3120.06
502.351	2993.06
502.454	2940.06
502.557	2849.06
502.659	2905.06
502.762	2655.06
502.865	2679.06
502.967	2702.06
503.07	2632.06
503.173	2580.06
503.275	2525.06
503.378	2570.06
503.48	2472.06
503.583	2618.06
503.686	2583.06
503.788	2697.06
503.891	2485.06
503.993	2691.06
504.096	2480.06
504.198	2499.06
504.301	2538.06
504.403	2481.06
504.506	2529.06
504.608	2479.06
504.711	2462.06
504.813	2437.06
504.916	2346.06
505.018	2277.06
505.121	2235.06
505.223	2240.06
505.326	2204.06
505.428	2183.06
505.531	2123.06
505.633	2183.06
505.735	2019.06
505.838	2016.06
505.94	2076.06
506.042	2033.06
506.145	1988.06
506.247	2095.06
506.35	1998.06
506.452	2040.06
506.554	2101.06
506.656	2004.06
506.759	1945.06
506.861	1997.06
506.963	2008.06
507.066	1955.06
507.168	2072.06
507.27	1953.06
507.372	1879.06
507.475	1873.06
507.577	1955.06
507.679	1967.06
507.781	1814.06
507.883	1852.06
507.986	1919.06
508.088	1897.06
508.19	1940.06
508.292	1949.06
508.394	1811.06
508.496	1815.06
508.598	1937.06
508.701	1860.06
508.803	1876.06
508.905	1871.06
509.007	1872.06
509.109	1870.06
509.211	1850.06
509.313	1860.06
509.415	1745.06
509.517	1760.06
509.619	1846.06
509.721	1863.06
509.823	1794.06
509.925	1964.06
510.027	1738.06
510.129	1821.06
510.231	1895.06
510.333	1765.06
510.435	1758.06
510.537	1881.06
510.639	1876.06
510.741	1774.06
510.843	1812.06
510.945	1835.06
511.047	1864.06
511.148	1827.06
511.25	1815.06
511.352	1810.06
511.454	1760.06
511.556	1873.06
511.658	1831.06
511.76	1865.06
511.861	1951.06
511.963	1792.06
512.065	1879.06
512.167	1844.06
512.268	2011.06
512.37	1860.06
512.472	1818.06
512.574	1904.06
512.676	1887.06
512.777	1810.06
512.879	1833.06
512.981	1837.06
513.082	1866.06
513.184	1859.06
513.286	2258.06
513.387	1878.06
513.489	1985.06
513.591	1971.06
513.692	1990.06
513.794	1864.06
513.896	1749.06
513.997	1806.06
514.099	1831.06
514.2	1926.06
514.302	1838.06
514.404	1868.06
514.505	1862.06
514.607	1934.06
514.708	1884.06
514.81	1929.06
514.911	1978.06
515.013	1960.06
515.114	1950.06
515.216	1989.06
515.317	1949.06
515.419	1960.06
515.52	2043.06
515.622	1965.06
515.723	1943.06
515.825	2202.06
515.926	2059.06
516.027	2020.06
516.129	2012.06
516.23	2124.06
516.332	2126.06
516.433	2152.06
516.534	2276.06
516.636	2259.06
516.737	2186.06
516.838	3181.06
516.94	2402.06
517.041	2407.06
517.142	2537.06
517.244	2651.06
517.345	2532.06
517.446	2648.06
517.547	2609.06
517.649	2554.06
517.75	2617.06
517.851	2635.06
517.952	2776.06
518.054	2520.06
518.155	2680.06
518.256	2472.06
518.357	2548.06
518.458	2372.06
518.56	2386.06
518.661	2369.06
518.762	2399.06
518.863	2450.06
518.964	2370.06
519.065	2241.06
519.166	2312.06
519.268	2209.06
519.369	2468.06
519.47	2203.06
519.571	2171.06
519.672	2173.06
519.773	2172.06
519.874	2201.06
519.975	2222.06
520.076	2192.06
520.177	2206.06
520.278	2138.06
520.379	2151.06
520.48	2098.06
520.581	2068.06
520.682	2165.06
520.783	2170.06
520.884	2216.06
520.985	2087.06
521.086	2160.06
521.187	2148.06
521.288	2072.06
521.389	2143.06
521.489	2109.06
521.59	2039.06
521.691	2192.06
521.792	2168.06
521.893	2188.06
521.994	2223.06
522.095	2177.06
522.195	2175.06
522.296	2221.06
522.397	2270.06
522.498	2173.06
522.599	2090.06
522.699	2133.06
522.8	2116.06
522.901	2235.06
523.002	2164.06
523.102	2331.06
523.203	2121.06
523.304	2292.06
523.405	2160.06
523.505	2192.06
523.606	2169.06
523.707	2255.06
523.807	2183.06
523.908	2121.06
524.009	2257.06
524.109	2156.06
524.21	2208.06
524.31	2302.06
524.411	2304.06
524.512	2318.06
524.612	2245.06
524.713	2362.06
524.813	2159.06
524.914	2399.06
525.014	6955.06
525.115	2589.06
525.216	2174.06
525.316	2221.06
525.417	2174.06
525.517	2150.06
525.618	2126.06
525.718	2201.06
525.819	2156.06
525.919	2182.06
526.019	2205.06
526.12	2141.06
526.22	2108.06
526.321	2142.06
526.421	2089.06
526.522	2082.06
526.622	2064.06
526.722	2125.06
526.823	2123.06
526.923	2182.06
527.023	2201.06
527.124	2058.06
527.224	2152.06
527.324	2112.06
527.425	2182.06
527.525	2046.06
527.625	2160.06
527.726	2130.06
527.826	2225.06
527.926	2210.06
528.026	2130.06
528.127	2095.06
528.227	2191.06
528.327	2295.06
528.427	2107.06
528.528	2232.06
528.628	2196.06
528.728	2118.06
528.828	2188.06
528.928	2325.06
529.029	2158.06
529.129	2187.06
529.229	2280.06
529.329	2200.06
529.429	2204.06
529.529	2277.06
529.629	2254.06
529.729	2112.06
529.829	2219.06
529.93	2114.06
530.03	2180.06
530.13	2092.06
530.23	2152.06
530.33	2109.06
530.43	2056.06
530.53	2145.06
530.63	2090.06
530.73	1975.06
530.83	2035.06
530.93	1977.06
531.03	2012.06
531.13	2152.06
531.23	2077.06
531.33	2042.06
531.429	2105.06
531.529	2139.06
531.629	2033.06
531.729	1969.06
531.829	2092.06
531.929	1978.06
532.029	2043.06
532.129	2026.06
532.229	2099.06
532.328	1992.06
532.428	2014.06
532.528	1924.06
532.628	1920.06
532.728	1993.06
532.827	1968.06
532.927	2078.06
533.027	2020.06
533.127	2129.06
533.227	2058.06
533.326	2066.06
533.426	2000.06
533.526	2092.06
533.625	2062.06
533.725	2254.06
533.825	2042.06
533.924	1914.06
534.024	1916.06
534.124	1864.06
534.223	1911.06
534.323	2260.06
534.423	1986.06
534.522	1875.06
534.622	1814.06
534.722	1927.06
534.821	1896.06
534.921	1808.06
535.02	1864.06
535.12	1889.06
535.219	1988.06
535.319	1970.06
535.419	1901.06
535.518	1829.06
535.618	1869.06
535.717	1912.06
535.817	1740.06
535.916	1725.06
536.016	1938.06
536.115	1752.06
536.215	1745.06
536.314	1768.06
536.413	1623.06
536.513	1730.06
536.612	1752.06
536.712	1662.06
536.811	1704.06
536.91	1652.06
537.01	1653.06
537.109	1693.06
537.209	1639.06
537.308	1714.06
537.407	1647.06
537.507	1651.06
537.606	1696.06
537.705	1687.06
537.805	1652.06
537.904	1629.06
538.003	1687.06
