Data from sinsal_HRC06701__40__101.txt Node

Date: Thu Apr 18 01:41:43 CDT 2024
User: Estudiantes 2
Spectrometer: HR+C0670
Trigger mode: 4
Integration Time (sec): 1.000000E0
Scans to average: 1
Electric dark correction enabled: true
Nonlinearity correction enabled: false
Boxcar width: 0
XAxis mode: Wavelengths
Number of Pixels in Spectrum: 2048
>>>>>Begin Spectral Data<<<<<
407.81	-110.06
407.921	-110.06
408.032	-110.06
408.143	-98.06
408.254	-124.06
408.365	28.94
408.476	234.94
408.587	-9.06
408.699	-25.06
408.81	19.94
408.921	-73.06
409.032	-27.06
409.143	88.94
409.254	1.94
409.365	54.94
409.476	-3.06
409.587	-0.06
409.698	39.94
409.809	77.94
409.92	-11.06
410.031	-7.06
410.142	55.94
410.253	60.94
410.364	15.94
410.475	108.94
410.585	742.94
410.696	790.94
410.807	736.94
410.918	769.94
411.029	767.94
411.14	793.94
411.251	745.94
411.362	849.94
411.472	834.94
411.583	748.94
411.694	870.94
411.805	735.94
411.916	763.94
412.026	871.94
412.137	778.94
412.248	775.94
412.359	852.94
412.47	717.94
412.58	746.94
412.691	839.94
412.802	792.94
412.912	736.94
413.023	775.94
413.134	783.94
413.245	796.94
413.355	718.94
413.466	804.94
413.577	722.94
413.687	796.94
413.798	707.94
413.909	788.94
414.019	797.94
414.13	818.94
414.24	762.94
414.351	751.94
414.462	911.94
414.572	828.94
414.683	805.94
414.793	784.94
414.904	1121.94
415.014	759.94
415.125	726.94
415.235	826.94
415.346	863.94
415.456	885.94
415.567	853.94
415.677	787.94
415.788	813.94
415.898	738.94
416.009	791.94
416.119	812.94
416.23	735.94
416.34	761.94
416.45	765.94
416.561	1291.94
416.671	913.94
416.782	711.94
416.892	756.94
417.002	869.94
417.113	847.94
417.223	770.94
417.333	759.94
417.444	823.94
417.554	836.94
417.664	825.94
417.775	807.94
417.885	808.94
417.995	790.94
418.106	961.94
418.216	842.94
418.326	851.94
418.436	893.94
418.547	829.94
418.657	778.94
418.767	896.94
418.877	878.94
418.987	836.94
419.098	863.94
419.208	879.94
419.318	946.94
419.428	941.94
419.538	851.94
419.648	896.94
419.759	940.94
419.869	983.94
419.979	866.94
420.089	868.94
420.199	889.94
420.309	944.94
420.419	914.94
420.529	880.94
420.639	1175.94
420.749	913.94
420.859	921.94
420.969	947.94
421.079	1092.94
421.189	1022.94
421.299	1024.94
421.409	846.94
421.519	975.94
421.629	992.94
421.739	953.94
421.849	888.94
421.959	896.94
422.069	999.94
422.179	884.94
422.289	877.94
422.399	1001.94
422.509	990.94
422.619	3632.94
422.729	1284.94
422.838	932.94
422.948	949.94
423.058	1022.94
423.168	1000.94
423.278	1017.94
423.388	1021.94
423.498	1146.94
423.607	1066.94
423.717	1268.94
423.827	1258.94
423.937	1077.94
424.046	1142.94
424.156	1192.94
424.266	1060.94
424.376	1249.94
424.485	1239.94
424.595	1041.94
424.705	1073.94
424.815	1146.94
424.924	1450.94
425.034	1143.94
425.144	1026.94
425.253	1182.94
425.363	1128.94
425.473	1144.94
425.582	1108.94
425.692	1131.94
425.801	1101.94
425.911	1276.94
426.021	1227.94
426.13	1281.94
426.24	1337.94
426.349	1285.94
426.459	1187.94
426.568	1145.94
426.678	1314.94
426.787	1259.94
426.897	1202.94
427.006	1293.94
427.116	1247.94
427.225	1224.94
427.335	1294.94
427.444	1256.94
427.554	1239.94
427.663	1270.94
427.773	1216.94
427.882	1265.94
427.992	1209.94
428.101	1359.94
428.21	1250.94
428.32	1334.94
428.429	1309.94
428.539	1514.94
428.648	1307.94
428.757	1388.94
428.867	1353.94
428.976	1433.94
429.085	1334.94
429.195	1315.94
429.304	1351.94
429.413	1453.94
429.523	1431.94
429.632	1392.94
429.741	1380.94
429.85	1378.94
429.96	1378.94
430.069	1368.94
430.178	1433.94
430.287	1546.94
430.397	1378.94
430.506	1510.94
430.615	1402.94
430.724	1460.94
430.833	1481.94
430.943	1471.94
431.052	1432.94
431.161	1448.94
431.27	1514.94
431.379	1443.94
431.488	1596.94
431.597	1607.94
431.706	1573.94
431.816	1512.94
431.925	1543.94
432.034	1525.94
432.143	1539.94
432.252	1540.94
432.361	1590.94
432.47	1497.94
432.579	1550.94
432.688	1545.94
432.797	1561.94
432.906	1507.94
433.015	1592.94
433.124	1846.94
433.233	1615.94
433.342	1640.94
433.451	1537.94
433.56	1549.94
433.669	1556.94
433.778	1541.94
433.886	1565.94
433.995	1553.94
434.104	1755.94
434.213	1599.94
434.322	1564.94
434.431	1724.94
434.54	1622.94
434.649	1756.94
434.757	1721.94
434.866	1643.94
434.975	1687.94
435.084	1690.94
435.193	1688.94
435.301	1777.94
435.41	1930.94
435.519	2010.94
435.628	1525.94
435.737	1498.94
435.845	1505.94
435.954	1390.94
436.063	1560.94
436.171	1530.94
436.28	1456.94
436.389	1569.94
436.498	1439.94
436.606	1493.94
436.715	1567.94
436.823	1470.94
436.932	1425.94
437.041	1401.94
437.149	1420.94
437.258	1423.94
437.367	1395.94
437.475	1390.94
437.584	1621.94
437.692	1341.94
437.801	2607.94
437.91	1506.94
438.018	1398.94
438.127	1294.94
438.235	1400.94
438.344	1400.94
438.452	1370.94
438.561	1334.94
438.669	1337.94
438.778	1284.94
438.886	1293.94
438.995	1335.94
439.103	1292.94
439.212	1255.94
439.32	1343.94
439.428	1284.94
439.537	1349.94
439.645	1452.94
439.754	1371.94
439.862	1340.94
439.97	1373.94
440.079	1415.94
440.187	1272.94
440.295	1517.94
440.404	1433.94
440.512	1357.94
440.62	1360.94
440.729	1445.94
440.837	1433.94
440.945	1975.94
441.054	1527.94
441.162	1389.94
441.27	1483.94
441.378	1490.94
441.487	1485.94
441.595	1808.94
441.703	1596.94
441.811	1468.94
441.92	1451.94
442.028	1442.94
442.136	1520.94
442.244	1503.94
442.352	1440.94
442.461	1401.94
442.569	1348.94
442.677	1364.94
442.785	1436.94
442.893	1437.94
443.001	1396.94
443.109	1384.94
443.217	1428.94
443.325	1380.94
443.434	1820.94
443.542	1701.94
443.65	1420.94
443.758	1580.94
443.866	1527.94
443.974	1761.94
444.082	1569.94
444.19	1560.94
444.298	1605.94
444.406	1660.94
444.514	1554.94
444.622	1703.94
444.73	1647.94
444.838	1687.94
444.946	1730.94
445.054	1549.94
445.161	1501.94
445.269	1509.94
445.377	1534.94
445.485	1494.94
445.593	1508.94
445.701	1699.94
445.809	1572.94
445.917	1513.94
446.025	1487.94
446.132	1555.94
446.24	1526.94
446.348	1557.94
446.456	1460.94
446.564	1424.94
446.671	1499.94
446.779	1433.94
446.887	1422.94
446.995	1456.94
447.102	1554.94
447.21	1509.94
447.318	1451.94
447.426	1465.94
447.533	1621.94
447.641	2416.94
447.749	1623.94
447.856	1402.94
447.964	1477.94
448.072	1580.94
448.179	1413.94
448.287	1491.94
448.395	1484.94
448.502	1421.94
448.61	1434.94
448.718	1436.94
448.825	1496.94
448.933	1461.94
449.04	1468.94
449.148	1576.94
449.256	1468.94
449.363	1543.94
449.471	1541.94
449.578	1606.94
449.686	1510.94
449.793	1633.94
449.901	1548.94
450.008	1561.94
450.116	1625.94
450.223	1593.94
450.331	1609.94
450.438	1566.94
450.546	1686.94
450.653	1688.94
450.76	1690.94
450.868	1687.94
450.975	1779.94
451.083	1703.94
451.19	1759.94
451.297	1696.94
451.405	1640.94
451.512	1688.94
451.619	1802.94
451.727	1770.94
451.834	1693.94
451.941	1748.94
452.049	1743.94
452.156	1712.94
452.263	1853.94
452.371	1749.94
452.478	1810.94
452.585	1891.94
452.692	1771.94
452.8	1829.94
452.907	1921.94
453.014	1813.94
453.121	1776.94
453.229	1787.94
453.336	1868.94
453.443	1913.94
453.55	1835.94
453.657	1934.94
453.765	1883.94
453.872	1770.94
453.979	1936.94
454.086	1917.94
454.193	1852.94
454.3	1873.94
454.407	1974.94
454.514	1970.94
454.621	1877.94
454.729	1917.94
454.836	1837.94
454.943	1945.94
455.05	2002.94
455.157	1990.94
455.264	1880.94
455.371	1931.94
455.478	1896.94
455.585	3039.94
455.692	2121.94
455.799	2052.94
455.906	1935.94
456.013	1934.94
456.12	1937.94
456.227	2007.94
456.334	2081.94
456.44	2212.94
456.547	2022.94
456.654	1938.94
456.761	2125.94
456.868	2151.94
456.975	2131.94
457.082	2096.94
457.189	2005.94
457.296	2047.94
457.402	2045.94
457.509	2100.94
457.616	2157.94
457.723	2303.94
457.83	2189.94
457.936	2132.94
458.043	2376.94
458.15	2200.94
458.257	2245.94
458.363	2250.94
458.47	2312.94
458.577	2377.94
458.684	2337.94
458.79	2415.94
458.897	2470.94
459.004	2475.94
459.11	2436.94
459.217	2517.94
459.324	2585.94
459.43	2652.94
459.537	2779.94
459.644	2626.94
459.75	2549.94
459.857	2893.94
459.964	2633.94
460.07	2709.94
460.177	2724.94
460.283	2723.94
460.39	2897.94
460.496	2744.94
460.603	2805.94
460.71	2682.94
460.816	2685.94
460.923	2688.94
461.029	2757.94
461.136	2733.94
461.242	2691.94
461.349	2703.94
461.455	2656.94
461.562	2971.94
461.668	2806.94
461.774	2840.94
461.881	2810.94
461.987	2873.94
462.094	2788.94
462.2	2844.94
462.307	3000.94
462.413	2896.94
462.519	2893.94
462.626	3214.94
462.732	3059.94
462.838	3242.94
462.945	3370.94
463.051	3252.94
463.157	3231.94
463.264	3131.94
463.37	3126.94
463.476	3100.94
463.583	2993.94
463.689	3072.94
463.795	3006.94
463.901	3016.94
464.008	3235.94
464.114	3045.94
464.22	2998.94
464.326	3110.94
464.433	2884.94
464.539	2956.94
464.645	2821.94
464.751	2952.94
464.857	2774.94
464.963	2655.94
465.07	2676.94
465.176	2455.94
465.282	2480.94
465.388	2595.94
465.494	2335.94
465.6	2286.94
465.706	2298.94
465.812	2134.94
465.918	2292.94
466.024	2234.94
466.131	2239.94
466.237	2074.94
466.343	2087.94
466.449	2016.94
466.555	2023.94
466.661	1988.94
466.767	1964.94
466.873	1963.94
466.979	2069.94
467.085	2029.94
467.191	1987.94
467.296	1944.94
467.402	1915.94
467.508	1994.94
467.614	2033.94
467.72	1921.94
467.826	1938.94
467.932	1836.94
468.038	1806.94
468.144	1875.94
468.25	1821.94
468.355	1806.94
468.461	1864.94
468.567	1706.94
468.673	1781.94
468.779	1834.94
468.885	1761.94
468.99	1720.94
469.096	1791.94
469.202	1900.94
469.308	1750.94
469.413	1818.94
469.519	1835.94
469.625	1808.94
469.731	1830.94
469.836	1852.94
469.942	1938.94
470.048	1823.94
470.153	1849.94
470.259	1831.94
470.365	1953.94
470.47	1905.94
470.576	1835.94
470.682	1807.94
470.787	1773.94
470.893	1809.94
470.999	1789.94
471.104	1809.94
471.21	1700.94
471.315	1614.94
471.421	1613.94
471.527	1879.94
471.632	1724.94
471.738	1722.94
471.843	1560.94
471.949	1707.94
472.054	1680.94
472.16	1570.94
472.265	1593.94
472.371	1563.94
472.476	1570.94
472.582	1642.94
472.687	1534.94
472.793	1505.94
472.898	1563.94
473.003	1496.94
473.109	1498.94
473.214	1474.94
473.32	1497.94
473.425	1574.94
473.53	1508.94
473.636	1480.94
473.741	1459.94
473.847	1504.94
473.952	1589.94
474.057	1546.94
474.163	1595.94
474.268	1543.94
474.373	1567.94
474.478	1455.94
474.584	1477.94
474.689	1564.94
474.794	1502.94
474.9	1726.94
475.005	1515.94
475.11	1638.94
475.215	1429.94
475.321	1525.94
475.426	1626.94
475.531	1618.94
475.636	1550.94
475.741	1440.94
475.846	1583.94
475.952	1716.94
476.057	1623.94
476.162	1573.94
476.267	1661.94
476.372	1776.94
476.477	1579.94
476.582	1651.94
476.687	1639.94
476.793	1548.94
476.898	1576.94
477.003	1622.94
477.108	1572.94
477.213	1551.94
477.318	1656.94
477.423	1655.94
477.528	1708.94
477.633	1733.94
477.738	1739.94
477.843	1575.94
477.948	1658.94
478.053	1706.94
478.158	1655.94
478.263	1718.94
478.368	1759.94
478.473	1771.94
478.578	1765.94
478.682	1767.94
478.787	1796.94
478.892	1700.94
478.997	1807.94
479.102	1806.94
479.207	1703.94
479.312	1888.94
479.417	1807.94
479.521	1779.94
479.626	1842.94
479.731	1851.94
479.836	1850.94
479.941	1903.94
480.045	1921.94
480.15	1905.94
480.255	1901.94
480.36	1848.94
480.465	1872.94
480.569	2006.94
480.674	1840.94
480.779	1796.94
480.883	1833.94
480.988	1920.94
481.093	1913.94
481.197	1807.94
481.302	1827.94
481.407	1852.94
481.511	3265.94
481.616	1978.94
481.721	1869.94
481.825	2001.94
481.93	1782.94
482.035	1851.94
482.139	1935.94
482.244	1905.94
482.348	1913.94
482.453	1870.94
482.557	1923.94
482.662	1940.94
482.767	1865.94
482.871	1882.94
482.976	1931.94
483.08	1910.94
483.185	2131.94
483.289	1910.94
483.394	1905.94
483.498	2038.94
483.603	1906.94
483.707	1923.94
483.811	2078.94
483.916	2090.94
484.02	2019.94
484.125	2135.94
484.229	2092.94
484.333	2088.94
484.438	2049.94
484.542	2015.94
484.647	2026.94
484.751	2113.94
484.855	2061.94
484.96	2084.94
485.064	2148.94
485.168	2193.94
485.273	2104.94
485.377	2159.94
485.481	2379.94
485.585	2202.94
485.69	2166.94
485.794	2245.94
485.898	2224.94
486.002	2161.94
486.107	2256.94
486.211	2239.94
486.315	2196.94
486.419	2288.94
486.524	2341.94
486.628	2240.94
486.732	2245.94
486.836	2303.94
486.94	2346.94
487.044	2247.94
487.148	2255.94
487.253	2243.94
487.357	2295.94
487.461	2416.94
487.565	2287.94
487.669	2272.94
487.773	2256.94
487.877	2348.94
487.981	2323.94
488.085	2245.94
488.189	2303.94
488.293	2433.94
488.397	2701.94
488.501	2364.94
488.605	2299.94
488.709	2318.94
488.813	2359.94
488.917	2265.94
489.021	2245.94
489.125	2522.94
489.229	2365.94
489.333	2351.94
489.437	2302.94
489.541	2378.94
489.645	2240.94
489.749	2326.94
489.853	2429.94
489.956	2252.94
490.06	2308.94
490.164	2316.94
490.268	2331.94
490.372	2345.94
490.476	2354.94
490.579	2358.94
490.683	2882.94
490.787	2437.94
490.891	2359.94
490.995	2292.94
491.098	2369.94
491.202	2320.94
491.306	2333.94
491.41	2412.94
491.513	2365.94
491.617	2361.94
491.721	2474.94
491.824	2559.94
491.928	2359.94
492.032	2556.94
492.136	2407.94
492.239	2391.94
492.343	2336.94
492.446	2728.94
492.55	2572.94
492.654	2315.94
492.757	2304.94
492.861	2440.94
492.965	2351.94
493.068	2405.94
493.172	2406.94
493.275	2339.94
493.379	2339.94
493.482	2434.94
493.586	2530.94
493.689	2604.94
493.793	2391.94
493.896	2543.94
494	2412.94
494.103	2457.94
494.207	2671.94
494.31	2619.94
494.414	2443.94
494.517	2467.94
494.621	2351.94
494.724	2430.94
494.828	2335.94
494.931	2416.94
495.034	2299.94
495.138	2497.94
495.241	2349.94
495.345	2968.94
495.448	2463.94
495.551	2336.94
495.655	2325.94
495.758	2337.94
495.861	2365.94
495.965	2303.94
496.068	2398.94
496.171	2369.94
496.274	2338.94
496.378	2307.94
496.481	2404.94
496.584	2442.94
496.687	2400.94
496.791	2379.94
496.894	2456.94
496.997	2405.94
497.1	2469.94
497.204	2437.94
497.307	2403.94
497.41	2585.94
497.513	2611.94
497.616	2544.94
497.719	2469.94
497.823	2445.94
497.926	2509.94
498.029	2618.94
498.132	2633.94
498.235	2702.94
498.338	2737.94
498.441	2825.94
498.544	2819.94
498.647	2815.94
498.75	3068.94
498.853	3180.94
498.956	3005.94
499.059	3354.94
499.163	3192.94
499.266	3349.94
499.369	3470.94
499.471	3627.94
499.574	3846.94
499.677	3795.94
499.78	4038.94
499.883	4235.94
499.986	4335.94
500.089	4469.94
500.192	4616.94
500.295	4645.94
500.398	4611.94
500.501	4632.94
500.604	4510.94
500.707	4218.94
500.809	4232.94
500.912	4192.94
501.015	3977.94
501.118	3652.94
501.221	3613.94
501.324	3391.94
501.426	3330.94
501.529	3159.94
501.632	3070.94
501.735	2883.94
501.837	2791.94
501.94	2824.94
502.043	2637.94
502.146	2700.94
502.248	2677.94
502.351	2526.94
502.454	2543.94
502.557	2525.94
502.659	2410.94
502.762	2346.94
502.865	2285.94
502.967	2270.94
503.07	2254.94
503.173	2246.94
503.275	2277.94
503.378	2184.94
503.48	2103.94
503.583	2278.94
503.686	2137.94
503.788	2286.94
503.891	2196.94
503.993	2351.94
504.096	2108.94
504.198	2201.94
504.301	2021.94
504.403	2055.94
504.506	2180.94
504.608	2019.94
504.711	1998.94
504.813	2064.94
504.916	2070.94
505.018	1855.94
505.121	1872.94
505.223	1976.94
505.326	1854.94
505.428	1885.94
505.531	1901.94
505.633	1777.94
505.735	1744.94
505.838	1750.94
505.94	1759.94
506.042	1715.94
506.145	1679.94
506.247	1754.94
506.35	1657.94
506.452	1734.94
506.554	1753.94
506.656	1712.94
506.759	1683.94
506.861	1757.94
506.963	1643.94
507.066	1663.94
507.168	1765.94
507.27	1642.94
507.372	1594.94
507.475	1665.94
507.577	1661.94
507.679	1596.94
507.781	1567.94
507.883	1710.94
507.986	1575.94
508.088	1585.94
508.19	1694.94
508.292	1667.94
508.394	1603.94
508.496	1533.94
508.598	1567.94
508.701	1557.94
508.803	1641.94
508.905	1534.94
509.007	1582.94
509.109	1609.94
509.211	1608.94
509.313	1509.94
509.415	1513.94
509.517	1636.94
509.619	1487.94
509.721	1564.94
509.823	1540.94
509.925	1627.94
510.027	1564.94
510.129	1591.94
510.231	1571.94
510.333	1454.94
510.435	1543.94
510.537	1571.94
510.639	1560.94
510.741	1483.94
510.843	1592.94
510.945	1514.94
511.047	1554.94
511.148	1598.94
511.25	1456.94
511.352	1554.94
511.454	1507.94
511.556	1602.94
511.658	1518.94
511.76	1552.94
511.861	1688.94
511.963	1482.94
512.065	1457.94
512.167	1580.94
512.268	1696.94
512.37	1571.94
512.472	1554.94
512.574	1584.94
512.676	1561.94
512.777	1535.94
512.879	1524.94
512.981	1501.94
513.082	1575.94
513.184	1556.94
513.286	1824.94
513.387	1608.94
513.489	1699.94
513.591	1573.94
513.692	1606.94
513.794	1632.94
513.896	1501.94
513.997	1551.94
514.099	1561.94
514.2	1631.94
514.302	1563.94
514.404	1607.94
514.505	1570.94
514.607	1571.94
514.708	1609.94
514.81	1690.94
514.911	1700.94
515.013	1705.94
515.114	1707.94
515.216	1696.94
515.317	1698.94
515.419	1676.94
515.52	1763.94
515.622	1701.94
515.723	1681.94
515.825	1830.94
515.926	1706.94
516.027	1750.94
516.129	1786.94
516.23	1807.94
516.332	1851.94
516.433	1896.94
516.534	1885.94
516.636	1857.94
516.737	1898.94
516.838	2816.94
516.94	2054.94
517.041	2023.94
517.142	2180.94
517.244	2156.94
517.345	2081.94
517.446	2146.94
517.547	2134.94
517.649	2065.94
517.75	2127.94
517.851	2091.94
517.952	2241.94
518.054	2151.94
518.155	2145.94
518.256	2020.94
518.357	2230.94
518.458	1985.94
518.56	1940.94
518.661	1979.94
518.762	1954.94
518.863	2047.94
518.964	1975.94
519.065	1949.94
519.166	1879.94
519.268	1783.94
519.369	2077.94
519.47	1833.94
519.571	1904.94
519.672	1865.94
519.773	1815.94
519.874	1869.94
519.975	1863.94
520.076	1860.94
520.177	1876.94
520.278	1844.94
520.379	1835.94
520.48	1720.94
520.581	1739.94
520.682	1834.94
520.783	1760.94
520.884	1811.94
520.985	1874.94
521.086	1762.94
521.187	1815.94
521.288	1750.94
521.389	1801.94
521.489	1748.94
521.59	1714.94
521.691	1781.94
521.792	1726.94
521.893	1857.94
521.994	1934.94
522.095	1806.94
522.195	1869.94
522.296	1853.94
522.397	1781.94
522.498	1820.94
522.599	1722.94
522.699	1871.94
522.8	1769.94
522.901	1850.94
523.002	1831.94
523.102	1973.94
523.203	1763.94
523.304	1955.94
523.405	1715.94
523.505	1767.94
523.606	1854.94
523.707	1777.94
523.807	1833.94
523.908	1817.94
524.009	1859.94
524.109	1782.94
524.21	1758.94
524.31	1879.94
524.411	1902.94
524.512	1916.94
524.612	1903.94
524.713	1949.94
524.813	1841.94
524.914	2009.94
525.014	6512.94
525.115	2151.94
525.216	1819.94
525.316	1841.94
525.417	1762.94
525.517	1752.94
525.618	1849.94
525.718	1749.94
525.819	1735.94
525.919	1879.94
526.019	1771.94
526.12	1856.94
526.22	1819.94
526.321	1765.94
526.421	1697.94
526.522	1762.94
526.622	1754.94
526.722	1701.94
526.823	1740.94
526.923	1767.94
527.023	1826.94
527.124	1761.94
527.224	1850.94
527.324	1669.94
527.425	1765.94
527.525	1705.94
527.625	1725.94
527.726	1714.94
527.826	1836.94
527.926	1760.94
528.026	1746.94
528.127	1764.94
528.227	1748.94
528.327	1860.94
528.427	1767.94
528.528	1824.94
528.628	1779.94
528.728	1755.94
528.828	1841.94
528.928	1816.94
529.029	1814.94
529.129	1852.94
529.229	1776.94
529.329	1803.94
529.429	1864.94
529.529	1838.94
529.629	1775.94
529.729	1692.94
529.829	1930.94
529.93	1686.94
530.03	1780.94
530.13	1824.94
530.23	1727.94
530.33	1737.94
530.43	1775.94
530.53	1746.94
530.63	1686.94
530.73	1717.94
530.83	1665.94
530.93	1641.94
531.03	1668.94
531.13	1781.94
531.23	1588.94
531.33	1696.94
531.429	1763.94
531.529	1702.94
531.629	1729.94
531.729	1703.94
531.829	1649.94
531.929	1625.94
532.029	1722.94
532.129	1658.94
532.229	1670.94
532.328	1652.94
532.428	1698.94
532.528	1556.94
532.628	1567.94
532.728	1704.94
532.827	1583.94
532.927	1674.94
533.027	1687.94
533.127	1709.94
533.227	1623.94
533.326	1740.94
533.426	1581.94
533.526	1721.94
533.625	1752.94
533.725	1886.94
533.825	1678.94
533.924	1562.94
534.024	1534.94
534.124	1553.94
534.223	1599.94
534.323	1861.94
534.423	1566.94
534.522	1605.94
534.622	1547.94
534.722	1573.94
534.821	1527.94
534.921	1522.94
535.02	1500.94
535.12	1500.94
535.219	1620.94
535.319	1641.94
535.419	1557.94
535.518	1500.94
535.618	1592.94
535.717	1595.94
535.817	1494.94
535.916	1415.94
536.016	1554.94
536.115	1438.94
536.215	1462.94
536.314	1411.94
536.413	1362.94
536.513	1408.94
536.612	1449.94
536.712	1334.94
536.811	1413.94
536.91	1405.94
537.01	1381.94
537.109	1413.94
537.209	1408.94
537.308	1354.94
537.407	1338.94
537.507	1410.94
537.606	1363.94
537.705	1402.94
537.805	1372.94
537.904	1366.94
538.003	1364.94
538.102	1471.94
538.202	1392.94
538.301	1435.94
538.4	1385.94
538.499	1415.94
538.599	1425.94
