Data from sinsal_HRC06701__11__72.txt Node

Date: Thu Apr 18 01:41:14 CDT 2024
User: Estudiantes 2
Spectrometer: HR+C0670
Trigger mode: 4
Integration Time (sec): 1.000000E0
Scans to average: 1
Electric dark correction enabled: true
Nonlinearity correction enabled: false
Boxcar width: 0
XAxis mode: Wavelengths
Number of Pixels in Spectrum: 2048
>>>>>Begin Spectral Data<<<<<
407.81	-72.69
407.921	-72.69
408.032	-72.69
408.143	-113.69
408.254	-109.69
408.365	75.31
408.476	196.31
408.587	-34.69
408.699	22.31
408.81	-38.69
408.921	-56.69
409.032	-12.69
409.143	27.31
409.254	6.31
409.365	83.31
409.476	-7.69
409.587	-9.69
409.698	45.31
409.809	118.31
409.92	-44.69
410.031	-17.69
410.142	100.31
410.253	-5.69
410.364	-9.69
410.475	698.31
410.585	3408.31
410.696	3677.31
410.807	3606.31
410.918	3590.31
411.029	3729.31
411.14	3664.31
411.251	3751.31
411.362	3753.31
411.472	3821.31
411.583	3674.31
411.694	3763.31
411.805	3842.31
411.916	3866.31
412.026	3851.31
412.137	3809.31
412.248	3798.31
412.359	3805.31
412.47	3665.31
412.58	3640.31
412.691	3777.31
412.802	3590.31
412.912	3642.31
413.023	3833.31
413.134	3610.31
413.245	3785.31
413.355	3677.31
413.466	3700.31
413.577	3669.31
413.687	3842.31
413.798	3668.31
413.909	3828.31
414.019	3756.31
414.13	3826.31
414.24	3678.31
414.351	3737.31
414.462	3969.31
414.572	3722.31
414.683	3838.31
414.793	3801.31
414.904	4004.31
415.014	3721.31
415.125	3707.31
415.235	3817.31
415.346	3809.31
415.456	3812.31
415.567	3813.31
415.677	3670.31
415.788	3750.31
415.898	3760.31
416.009	3638.31
416.119	3714.31
416.23	3749.31
416.34	3590.31
416.45	3703.31
416.561	4415.31
416.671	3883.31
416.782	3678.31
416.892	3761.31
417.002	3736.31
417.113	3939.31
417.223	3804.31
417.333	3835.31
417.444	3755.31
417.554	3856.31
417.664	3924.31
417.775	3800.31
417.885	3925.31
417.995	3948.31
418.106	4032.31
418.216	4071.31
418.326	4124.31
418.436	4270.31
418.547	4135.31
418.657	4140.31
418.767	4305.31
418.877	4227.31
418.987	4286.31
419.098	4289.31
419.208	4302.31
419.318	4335.31
419.428	4356.31
419.538	4269.31
419.648	4331.31
419.759	4300.31
419.869	4268.31
419.979	4207.31
420.089	4304.31
420.199	4187.31
420.309	4341.31
420.419	4244.31
420.529	4315.31
420.639	4779.31
420.749	4358.31
420.859	4438.31
420.969	4468.31
421.079	4558.31
421.189	4436.31
421.299	4392.31
421.409	4417.31
421.519	4557.31
421.629	4588.31
421.739	4482.31
421.849	4485.31
421.959	4559.31
422.069	4609.31
422.179	4562.31
422.289	4637.31
422.399	4656.31
422.509	4743.31
422.619	7041.31
422.729	4997.31
422.838	4699.31
422.948	4850.31
423.058	4997.31
423.168	4909.31
423.278	4906.31
423.388	5027.31
423.498	5146.31
423.607	5103.31
423.717	5313.31
423.827	5405.31
423.937	5199.31
424.046	5268.31
424.156	5360.31
424.266	5239.31
424.376	5400.31
424.485	5468.31
424.595	5351.31
424.705	5320.31
424.815	5559.31
424.924	5795.31
425.034	5494.31
425.144	5478.31
425.253	5394.31
425.363	5642.31
425.473	5708.31
425.582	5486.31
425.692	5556.31
425.801	5666.31
425.911	5788.31
426.021	5691.31
426.13	5880.31
426.24	5911.31
426.349	5857.31
426.459	5813.31
426.568	5788.31
426.678	5886.31
426.787	5963.31
426.897	5944.31
427.006	5968.31
427.116	6056.31
427.225	6015.31
427.335	6237.31
427.444	6113.31
427.554	6071.31
427.663	6236.31
427.773	6137.31
427.882	6359.31
427.992	6227.31
428.101	6169.31
428.21	6387.31
428.32	6498.31
428.429	6346.31
428.539	6756.31
428.648	6587.31
428.757	6509.31
428.867	6547.31
428.976	6736.31
429.085	6618.31
429.195	6724.31
429.304	6693.31
429.413	6742.31
429.523	6901.31
429.632	6714.31
429.741	6826.31
429.85	6760.31
429.96	6846.31
430.069	6926.31
430.178	6891.31
430.287	7095.31
430.397	7022.31
430.506	6932.31
430.615	6993.31
430.724	6996.31
430.833	7037.31
430.943	7168.31
431.052	7240.31
431.161	7311.31
431.27	7216.31
431.379	7255.31
431.488	7737.31
431.597	7489.31
431.706	7576.31
431.816	7568.31
431.925	7548.31
432.034	7419.31
432.143	7581.31
432.252	7537.31
432.361	7478.31
432.47	7451.31
432.579	7540.31
432.688	7537.31
432.797	7545.31
432.906	7536.31
433.015	7638.31
433.124	7777.31
433.233	7751.31
433.342	7686.31
433.451	7673.31
433.56	7600.31
433.669	7716.31
433.778	7624.31
433.886	7939.31
433.995	7859.31
434.104	7999.31
434.213	7926.31
434.322	7977.31
434.431	8145.31
434.54	8364.31
434.649	8613.31
434.757	8421.31
434.866	8327.31
434.975	8342.31
435.084	8173.31
435.193	8021.31
435.301	8083.31
435.41	8004.31
435.519	7962.31
435.628	7527.31
435.737	7473.31
435.845	7223.31
435.954	7243.31
436.063	7350.31
436.171	7314.31
436.28	7175.31
436.389	7500.31
436.498	7170.31
436.606	7262.31
436.715	7326.31
436.823	7018.31
436.932	6981.31
437.041	6905.31
437.149	6953.31
437.258	6877.31
437.367	6699.31
437.475	6737.31
437.584	7033.31
437.692	6678.31
437.801	8071.31
437.91	6716.31
438.018	6651.31
438.127	6641.31
438.235	6764.31
438.344	6676.31
438.452	6649.31
438.561	6551.31
438.669	6568.31
438.778	6442.31
438.886	6585.31
438.995	6581.31
439.103	6537.31
439.212	6519.31
439.32	6616.31
439.428	6446.31
439.537	6533.31
439.645	6740.31
439.754	6558.31
439.862	6579.31
439.97	6743.31
440.079	6727.31
440.187	6605.31
440.295	6884.31
440.404	6720.31
440.512	6752.31
440.62	6949.31
440.729	6855.31
440.837	6887.31
440.945	7624.31
441.054	7216.31
441.162	7119.31
441.27	7334.31
441.378	7425.31
441.487	7322.31
441.595	7717.31
441.703	7467.31
441.811	7244.31
441.92	7311.31
442.028	7141.31
442.136	7280.31
442.244	7061.31
442.352	7133.31
442.461	6979.31
442.569	6993.31
442.677	6983.31
442.785	7204.31
442.893	6894.31
443.001	7053.31
443.109	7013.31
443.217	7047.31
443.325	7002.31
443.434	7628.31
443.542	7374.31
443.65	7196.31
443.758	7388.31
443.866	7472.31
443.974	7716.31
444.082	7632.31
444.19	7752.31
444.298	7767.31
444.406	7960.31
444.514	8212.31
444.622	8135.31
444.73	8247.31
444.838	8090.31
444.946	8179.31
445.054	7786.31
445.161	7794.31
445.269	7634.31
445.377	7505.31
445.485	7509.31
445.593	7490.31
445.701	7476.31
445.809	7329.31
445.917	7346.31
446.025	7257.31
446.132	7444.31
446.24	7391.31
446.348	7316.31
446.456	7157.31
446.564	7275.31
446.671	7294.31
446.779	7218.31
446.887	7181.31
446.995	7231.31
447.102	7284.31
447.21	7090.31
447.318	7115.31
447.426	7060.31
447.533	7377.31
447.641	8177.31
447.749	7145.31
447.856	7088.31
447.964	7232.31
448.072	7241.31
448.179	7126.31
448.287	7238.31
448.395	7126.31
448.502	7037.31
448.61	7204.31
448.718	7304.31
448.825	7172.31
448.933	7138.31
449.04	7275.31
449.148	7364.31
449.256	7402.31
449.363	7410.31
449.471	7379.31
449.578	7508.31
449.686	7550.31
449.793	7603.31
449.901	7544.31
450.008	7703.31
450.116	7719.31
450.223	7822.31
450.331	7883.31
450.438	8135.31
450.546	7964.31
450.653	8104.31
450.76	8187.31
450.868	8134.31
450.975	8281.31
451.083	8290.31
451.19	8333.31
451.297	8214.31
451.405	8361.31
451.512	8498.31
451.619	8460.31
451.727	8377.31
451.834	8409.31
451.941	8451.31
452.049	8411.31
452.156	8529.31
452.263	8623.31
452.371	8697.31
452.478	8739.31
452.585	8754.31
452.692	8657.31
452.8	8857.31
452.907	8905.31
453.014	8731.31
453.121	8810.31
453.229	8812.31
453.336	8965.31
453.443	8923.31
453.55	9016.31
453.657	8908.31
453.765	9163.31
453.872	8998.31
453.979	9213.31
454.086	9178.31
454.193	9234.31
454.3	9093.31
454.407	9235.31
454.514	9333.31
454.621	9319.31
454.729	9189.31
454.836	9272.31
454.943	9505.31
455.05	9390.31
455.157	9480.31
455.264	9400.31
455.371	9452.31
455.478	9582.31
455.585	10890.31
455.692	9750.31
455.799	9714.31
455.906	9717.31
456.013	9679.31
456.12	9777.31
456.227	9774.31
456.334	10062.31
456.44	10135.31
456.547	10096.31
456.654	9968.31
456.761	10111.31
456.868	10155.31
456.975	10314.31
457.082	10265.31
457.189	10014.31
457.296	10209.31
457.402	10352.31
457.509	10214.31
457.616	10375.31
457.723	10759.31
457.83	10518.31
457.936	10732.31
458.043	11045.31
458.15	10725.31
458.257	11031.31
458.363	11377.31
458.47	11400.31
458.577	11435.31
458.684	11540.31
458.79	11804.31
458.897	11948.31
459.004	12158.31
459.11	12110.31
459.217	12124.31
459.324	12531.31
459.43	12728.31
459.537	12797.31
459.644	12892.31
459.75	12845.31
459.857	13251.31
459.964	13209.31
460.07	13004.31
460.177	13420.31
460.283	13496.31
460.39	13815.31
460.496	13223.31
460.603	13381.31
460.71	13494.31
460.816	13588.31
460.923	13345.31
461.029	13559.31
461.136	13644.31
461.242	13388.31
461.349	13497.31
461.455	13831.31
461.562	13790.31
461.668	13703.31
461.774	13640.31
461.881	14074.31
461.987	14071.31
462.094	14277.31
462.2	14495.31
462.307	14433.31
462.413	14471.31
462.519	14495.31
462.626	14495.31
462.732	14495.31
462.838	14495.31
462.945	14495.31
463.051	14495.31
463.157	14495.31
463.264	14495.31
463.37	14495.31
463.476	14495.31
463.583	14495.31
463.689	14495.31
463.795	14495.31
463.901	14495.31
464.008	14495.31
464.114	14495.31
464.22	14495.31
464.326	14495.31
464.433	14495.31
464.539	14359.31
464.645	13995.31
464.751	14019.31
464.857	13564.31
464.963	13255.31
465.07	13003.31
465.176	12485.31
465.282	12243.31
465.388	11970.31
465.494	11543.31
465.6	11477.31
465.706	11169.31
465.812	11025.31
465.918	11046.31
466.024	10938.31
466.131	10748.31
466.237	10648.31
466.343	10415.31
466.449	10220.31
466.555	10011.31
466.661	9918.31
466.767	9996.31
466.873	9831.31
466.979	10018.31
467.085	9758.31
467.191	9752.31
467.296	9750.31
467.402	9642.31
467.508	9599.31
467.614	9625.31
467.72	9402.31
467.826	9288.31
467.932	9228.31
468.038	9079.31
468.144	9068.31
468.25	8910.31
468.355	9050.31
468.461	8888.31
468.567	8914.31
468.673	9025.31
468.779	8829.31
468.885	8737.31
468.99	8845.31
469.096	8957.31
469.202	8818.31
469.308	8741.31
469.413	9070.31
469.519	8889.31
469.625	8895.31
469.731	8944.31
469.836	8975.31
469.942	9278.31
470.048	9090.31
470.153	9055.31
470.259	8977.31
470.365	9175.31
470.47	9095.31
470.576	8841.31
470.682	8917.31
470.787	8792.31
470.893	8583.31
470.999	8733.31
471.104	8654.31
471.21	8363.31
471.315	8289.31
471.421	8272.31
471.527	8324.31
471.632	8275.31
471.738	8120.31
471.843	7978.31
471.949	7949.31
472.054	7925.31
472.16	7941.31
472.265	7882.31
472.371	7702.31
472.476	7700.31
472.582	7787.31
472.687	7572.31
472.793	7510.31
472.898	7498.31
473.003	7463.31
473.109	7365.31
473.214	7363.31
473.32	7435.31
473.425	7293.31
473.53	7404.31
473.636	7388.31
473.741	7365.31
473.847	7356.31
473.952	7332.31
474.057	7289.31
474.163	7335.31
474.268	7272.31
474.373	7366.31
474.478	7236.31
474.584	7191.31
474.689	7203.31
474.794	7369.31
474.9	7669.31
475.005	7146.31
475.11	7355.31
475.215	7289.31
475.321	7225.31
475.426	7544.31
475.531	7486.31
475.636	7246.31
475.741	7272.31
475.846	7566.31
475.952	7639.31
476.057	7398.31
476.162	7541.31
476.267	7624.31
476.372	7664.31
476.477	7510.31
476.582	7552.31
476.687	7401.31
476.793	7578.31
476.898	7672.31
477.003	7729.31
477.108	7653.31
477.213	7747.31
477.318	7647.31
477.423	7818.31
477.528	8000.31
477.633	8128.31
477.738	8144.31
477.843	8117.31
477.948	8313.31
478.053	8206.31
478.158	8226.31
478.263	8351.31
478.368	8355.31
478.473	8553.31
478.578	8640.31
478.682	8504.31
478.787	8737.31
478.892	8646.31
478.997	8698.31
479.102	8705.31
479.207	8654.31
479.312	8861.31
479.417	8766.31
479.521	8703.31
479.626	9051.31
479.731	8841.31
479.836	8942.31
479.941	9182.31
480.045	9162.31
480.15	9174.31
480.255	9326.31
480.36	9321.31
480.465	9359.31
480.569	9476.31
480.674	9310.31
480.779	8960.31
480.883	8954.31
480.988	9128.31
481.093	9063.31
481.197	9012.31
481.302	9010.31
481.407	9049.31
481.511	10507.31
481.616	9010.31
481.721	8995.31
481.825	9106.31
481.93	8995.31
482.035	9029.31
482.139	9112.31
482.244	9114.31
482.348	9171.31
482.453	9128.31
482.557	9151.31
482.662	9274.31
482.767	9080.31
482.871	9168.31
482.976	9199.31
483.08	9351.31
483.185	9523.31
483.289	9365.31
483.394	9445.31
483.498	9520.31
483.603	9615.31
483.707	9729.31
483.811	9704.31
483.916	9699.31
484.02	9747.31
484.125	9933.31
484.229	9904.31
484.333	10116.31
484.438	9960.31
484.542	10109.31
484.647	10202.31
484.751	10208.31
484.855	10397.31
484.96	10277.31
485.064	10477.31
485.168	10539.31
485.273	10436.31
485.377	10745.31
485.481	10864.31
485.585	10829.31
485.69	10868.31
485.794	10823.31
485.898	10972.31
486.002	10878.31
486.107	10963.31
486.211	10827.31
486.315	11027.31
486.419	11160.31
486.524	11096.31
486.628	10975.31
486.732	11092.31
486.836	11093.31
486.94	11164.31
487.044	11145.31
487.148	11084.31
487.253	11105.31
487.357	11230.31
487.461	11347.31
487.565	11015.31
487.669	11093.31
487.773	10990.31
487.877	11131.31
487.981	11244.31
488.085	11155.31
488.189	11009.31
488.293	11190.31
488.397	11502.31
488.501	11130.31
488.605	11012.31
488.709	11189.31
488.813	11225.31
488.917	11026.31
489.021	11134.31
489.125	11303.31
489.229	11100.31
489.333	11483.31
489.437	11274.31
489.541	11402.31
489.645	11249.31
489.749	11315.31
489.853	11469.31
489.956	11313.31
490.06	11471.31
490.164	11470.31
490.268	11173.31
490.372	11450.31
490.476	11354.31
490.579	11394.31
490.683	11982.31
490.787	11403.31
490.891	11347.31
490.995	11432.31
491.098	11415.31
491.202	11367.31
491.306	11572.31
491.41	11387.31
491.513	11322.31
491.617	11449.31
491.721	11605.31
491.824	11705.31
491.928	11301.31
492.032	11720.31
492.136	11566.31
492.239	11429.31
492.343	11403.31
492.446	11908.31
492.55	11509.31
492.654	11368.31
492.757	11502.31
492.861	11509.31
492.965	11370.31
493.068	11481.31
493.172	11602.31
493.275	11437.31
493.379	11537.31
493.482	11535.31
493.586	11615.31
493.689	11590.31
493.793	11599.31
493.896	11745.31
494	11681.31
494.103	11597.31
494.207	11836.31
494.31	12094.31
494.414	11771.31
494.517	11686.31
494.621	11598.31
494.724	11500.31
494.828	11528.31
494.931	11417.31
495.034	11438.31
495.138	11618.31
495.241	11324.31
495.345	12052.31
495.448	11435.31
495.551	11312.31
495.655	11500.31
495.758	11447.31
495.861	11434.31
495.965	11410.31
496.068	11635.31
496.171	11524.31
496.274	11520.31
496.378	11548.31
496.481	11527.31
496.584	11475.31
496.687	11691.31
496.791	11726.31
496.894	11737.31
496.997	11624.31
497.1	11770.31
497.204	11825.31
497.307	11843.31
497.41	12268.31
497.513	12256.31
497.616	12273.31
497.719	12381.31
497.823	12538.31
497.926	12515.31
498.029	13003.31
498.132	13298.31
498.235	13332.31
498.338	13389.31
498.441	13887.31
498.544	13991.31
498.647	14495.31
498.75	14495.31
498.853	14495.31
498.956	14495.31
499.059	14495.31
499.163	14495.31
499.266	14495.31
499.369	14495.31
499.471	14495.31
499.574	14495.31
499.677	14495.31
499.78	14495.31
499.883	14495.31
499.986	14495.31
500.089	14495.31
500.192	14495.31
500.295	14495.31
500.398	14495.31
500.501	14495.31
500.604	14495.31
500.707	14495.31
500.809	14495.31
500.912	14495.31
501.015	14495.31
501.118	14495.31
501.221	14495.31
501.324	14495.31
501.426	14495.31
501.529	14495.31
501.632	14495.31
501.735	14495.31
501.837	14321.31
501.94	13612.31
502.043	13494.31
502.146	13260.31
502.248	12819.31
502.351	12616.31
502.454	12385.31
502.557	11950.31
502.659	11992.31
502.762	11659.31
502.865	11385.31
502.967	11105.31
503.07	11132.31
503.173	10825.31
503.275	10785.31
503.378	10612.31
503.48	10603.31
503.583	10507.31
503.686	10422.31
503.788	10652.31
503.891	10319.31
503.993	10512.31
504.096	10270.31
504.198	10341.31
504.301	10315.31
504.403	10281.31
504.506	10090.31
504.608	9904.31
504.711	9986.31
504.813	9803.31
504.916	9456.31
505.018	9241.31
505.121	9097.31
505.223	8925.31
505.326	8976.31
505.428	8904.31
505.531	8705.31
505.633	8630.31
505.735	8602.31
505.838	8431.31
505.94	8452.31
506.042	8356.31
506.145	8234.31
506.247	8196.31
506.35	8231.31
506.452	8181.31
506.554	8193.31
506.656	7902.31
506.759	8010.31
506.861	7981.31
506.963	7849.31
507.066	7878.31
507.168	7930.31
507.27	7817.31
507.372	7785.31
507.475	7750.31
507.577	7739.31
507.679	7681.31
507.781	7624.31
507.883	7627.31
507.986	7464.31
508.088	7626.31
508.19	7429.31
508.292	7518.31
508.394	7640.31
508.496	7475.31
508.598	7374.31
508.701	7495.31
508.803	7372.31
508.905	7340.31
509.007	7317.31
509.109	7417.31
509.211	7332.31
509.313	7348.31
509.415	7349.31
509.517	7165.31
509.619	7200.31
509.721	7258.31
509.823	7189.31
509.925	7240.31
510.027	7118.31
510.129	7242.31
510.231	7276.31
510.333	7202.31
510.435	7137.31
510.537	7144.31
510.639	7372.31
510.741	7147.31
510.843	7237.31
510.945	7077.31
511.047	7208.31
511.148	7126.31
511.25	7107.31
511.352	7171.31
511.454	7063.31
511.556	7284.31
511.658	7146.31
511.76	7311.31
511.861	7315.31
511.963	7140.31
512.065	7139.31
512.167	7066.31
512.268	7332.31
512.37	7289.31
512.472	7209.31
512.574	7245.31
512.676	7345.31
512.777	7130.31
512.879	7070.31
512.981	7219.31
513.082	7261.31
513.184	7105.31
513.286	7714.31
513.387	7437.31
513.489	7439.31
513.591	7308.31
513.692	7524.31
513.794	7402.31
513.896	7242.31
513.997	7334.31
514.099	7353.31
514.2	7459.31
514.302	7612.31
514.404	7440.31
514.505	7575.31
514.607	7694.31
514.708	7502.31
514.81	7550.31
514.911	7548.31
515.013	7733.31
515.114	7736.31
515.216	7610.31
515.317	7959.31
515.419	7746.31
515.52	7985.31
515.622	8038.31
515.723	8050.31
515.825	8270.31
515.926	8208.31
516.027	8229.31
516.129	8382.31
516.23	8555.31
516.332	8607.31
516.433	8740.31
516.534	8854.31
516.636	8930.31
516.737	9130.31
516.838	10042.31
516.94	9509.31
517.041	9501.31
517.142	9722.31
517.244	9922.31
517.345	9970.31
517.446	10012.31
517.547	10259.31
517.649	10102.31
517.75	10028.31
517.851	10131.31
517.952	10127.31
518.054	9996.31
518.155	9921.31
518.256	9692.31
518.357	9700.31
518.458	9507.31
518.56	9441.31
518.661	9422.31
518.762	9175.31
518.863	9255.31
518.964	9200.31
519.065	8932.31
519.166	8802.31
519.268	8707.31
519.369	8973.31
519.47	8758.31
519.571	8740.31
519.672	8527.31
519.773	8432.31
519.874	8539.31
519.975	8547.31
520.076	8347.31
520.177	8510.31
520.278	8321.31
520.379	8380.31
520.48	8254.31
520.581	8274.31
520.682	8382.31
520.783	8348.31
520.884	8458.31
520.985	8275.31
521.086	8236.31
521.187	8393.31
521.288	8171.31
521.389	8121.31
521.489	8189.31
521.59	8055.31
521.691	8166.31
521.792	8117.31
521.893	8325.31
521.994	8155.31
522.095	8048.31
522.195	8231.31
522.296	8162.31
522.397	8209.31
522.498	8252.31
522.599	8046.31
522.699	8141.31
522.8	8139.31
522.901	8142.31
523.002	8093.31
523.102	8261.31
523.203	8078.31
523.304	8375.31
523.405	8135.31
523.505	8134.31
523.606	8053.31
523.707	8049.31
523.807	8145.31
523.908	8087.31
524.009	8250.31
524.109	8208.31
524.21	8106.31
524.31	8157.31
524.411	8173.31
524.512	8300.31
524.612	8212.31
524.713	8295.31
524.813	8188.31
524.914	8415.31
525.014	12965.31
525.115	8353.31
525.216	8031.31
525.316	8173.31
525.417	8234.31
525.517	8086.31
525.618	8096.31
525.718	8209.31
525.819	8173.31
525.919	8165.31
526.019	8147.31
526.12	8290.31
526.22	8051.31
526.321	8101.31
526.421	8062.31
526.522	7931.31
526.622	8038.31
526.722	8080.31
526.823	8075.31
526.923	8098.31
527.023	8140.31
527.124	8119.31
527.224	8185.31
527.324	8032.31
527.425	8123.31
527.525	7992.31
527.625	8009.31
527.726	8142.31
527.826	8048.31
527.926	8120.31
528.026	8096.31
528.127	8080.31
528.227	7980.31
528.327	8166.31
528.427	7989.31
528.528	7981.31
528.628	7994.31
528.728	8058.31
528.828	8073.31
528.928	8089.31
529.029	8008.31
529.129	8118.31
529.229	7982.31
529.329	8114.31
529.429	8043.31
529.529	8059.31
529.629	8018.31
529.729	7939.31
529.829	8050.31
529.93	7704.31
530.03	7816.31
530.13	7818.31
530.23	7901.31
530.33	7955.31
530.43	7791.31
530.53	7838.31
530.63	7960.31
530.73	7702.31
530.83	7721.31
530.93	7752.31
531.03	7765.31
531.13	7789.31
531.23	7811.31
531.33	7846.31
531.429	7730.31
531.529	7871.31
531.629	7846.31
531.729	7604.31
531.829	7550.31
531.929	7698.31
532.029	7534.31
532.129	7572.31
532.229	7815.31
532.328	7641.31
532.428	7546.31
532.528	7415.31
532.628	7497.31
532.728	7578.31
532.827	7335.31
532.927	7457.31
533.027	7379.31
533.127	7490.31
533.227	7383.31
533.326	7344.31
533.426	7257.31
533.526	7488.31
533.625	7438.31
533.725	7492.31
533.825	7358.31
533.924	7243.31
534.024	7053.31
534.124	7127.31
534.223	7212.31
534.323	7401.31
534.423	7121.31
534.522	7215.31
534.622	6962.31
534.722	7068.31
534.821	7088.31
534.921	6826.31
535.02	6837.31
535.12	6987.31
535.219	6900.31
535.319	6908.31
535.419	6921.31
535.518	6789.31
535.618	6758.31
535.717	6887.31
535.817	6712.31
535.916	6615.31
536.016	6613.31
