Data from sinsal_HRC06701__53__114.txt Node

Date: Thu Apr 18 01:41:56 CDT 2024
User: Estudiantes 2
Spectrometer: HR+C0670
Trigger mode: 4
Integration Time (sec): 1.000000E0
Scans to average: 1
Electric dark correction enabled: true
Nonlinearity correction enabled: false
Boxcar width: 0
XAxis mode: Wavelengths
Number of Pixels in Spectrum: 2048
>>>>>Begin Spectral Data<<<<<
407.81	-130.12
407.921	-130.12
408.032	-130.12
408.143	-88.12
408.254	-110.12
408.365	33.88
408.476	236.88
408.587	-11.12
408.699	-28.12
408.81	-28.12
408.921	-3.12
409.032	-63.12
409.143	14.88
409.254	41.88
409.365	59.88
409.476	-9.12
409.587	26.88
409.698	56.88
409.809	85.88
409.92	-37.12
410.031	-5.12
410.142	25.88
410.253	6.88
410.364	57.88
410.475	1211.88
410.585	5972.88
410.696	6492.88
410.807	6236.88
410.918	6387.88
411.029	6373.88
411.14	6389.88
411.251	6374.88
411.362	6479.88
411.472	6508.88
411.583	6357.88
411.694	6600.88
411.805	6589.88
411.916	6586.88
412.026	6632.88
412.137	6552.88
412.248	6567.88
412.359	6561.88
412.47	6468.88
412.58	6344.88
412.691	6461.88
412.802	6377.88
412.912	6418.88
413.023	6455.88
413.134	6335.88
413.245	6395.88
413.355	6408.88
413.466	6374.88
413.577	6349.88
413.687	6454.88
413.798	6311.88
413.909	6482.88
414.019	6388.88
414.13	6486.88
414.24	6401.88
414.351	6526.88
414.462	6654.88
414.572	6493.88
414.683	6542.88
414.793	6541.88
414.904	6733.88
415.014	6460.88
415.125	6377.88
415.235	6395.88
415.346	6635.88
415.456	6446.88
415.567	6469.88
415.677	6363.88
415.788	6379.88
415.898	6485.88
416.009	6368.88
416.119	6505.88
416.23	6345.88
416.34	6397.88
416.45	6476.88
416.561	6763.88
416.671	6361.88
416.782	6412.88
416.892	6538.88
417.002	6441.88
417.113	6584.88
417.223	6513.88
417.333	6539.88
417.444	6579.88
417.554	6721.88
417.664	6838.88
417.775	6628.88
417.885	6970.88
417.995	6840.88
418.106	7070.88
418.216	6940.88
418.326	7075.88
418.436	7088.88
418.547	7062.88
418.657	7160.88
418.767	7307.88
418.877	7288.88
418.987	7413.88
419.098	7361.88
419.208	7447.88
419.318	7446.88
419.428	7535.88
419.538	7382.88
419.648	7489.88
419.759	7309.88
419.869	7379.88
419.979	7350.88
420.089	7410.88
420.199	7427.88
420.309	7437.88
420.419	7370.88
420.529	7470.88
420.639	7563.88
420.749	7582.88
420.859	7689.88
420.969	7724.88
421.079	7886.88
421.189	7571.88
421.299	7512.88
421.409	7636.88
421.519	7581.88
421.629	7785.88
421.739	7779.88
421.849	7946.88
421.959	7823.88
422.069	7923.88
422.179	7890.88
422.289	7880.88
422.399	8153.88
422.509	8250.88
422.619	10648.88
422.729	8456.88
422.838	8387.88
422.948	8346.88
423.058	8391.88
423.168	8531.88
423.278	8532.88
423.388	8579.88
423.498	8852.88
423.607	8673.88
423.717	9134.88
423.827	9041.88
423.937	9079.88
424.046	8985.88
424.156	9209.88
424.266	8973.88
424.376	9321.88
424.485	9253.88
424.595	9194.88
424.705	9394.88
424.815	9384.88
424.924	9830.88
425.034	9364.88
425.144	9427.88
425.253	9528.88
425.363	9734.88
425.473	9681.88
425.582	9422.88
425.692	9688.88
425.801	9568.88
425.911	9777.88
426.021	9802.88
426.13	9882.88
426.24	9968.88
426.349	10014.88
426.459	9964.88
426.568	9918.88
426.678	10163.88
426.787	10158.88
426.897	10055.88
427.006	10250.88
427.116	10397.88
427.225	10264.88
427.335	10524.88
427.444	10403.88
427.554	10337.88
427.663	10524.88
427.773	10667.88
427.882	10647.88
427.992	10685.88
428.101	10829.88
428.21	10845.88
428.32	10919.88
428.429	10849.88
428.539	11239.88
428.648	10984.88
428.757	10955.88
428.867	11284.88
428.976	11346.88
429.085	11200.88
429.195	11315.88
429.304	11283.88
429.413	11518.88
429.523	11589.88
429.632	11535.88
429.741	11437.88
429.85	11298.88
429.96	11752.88
430.069	11617.88
430.178	11808.88
430.287	11987.88
430.397	11925.88
430.506	11912.88
430.615	11976.88
430.724	12069.88
430.833	12066.88
430.943	12035.88
431.052	12228.88
431.161	12310.88
431.27	12444.88
431.379	12456.88
431.488	13019.88
431.597	12707.88
431.706	13032.88
431.816	12979.88
431.925	12820.88
432.034	12901.88
432.143	12952.88
432.252	12741.88
432.361	12724.88
432.47	12696.88
432.579	12661.88
432.688	12822.88
432.797	12828.88
432.906	12670.88
433.015	12896.88
433.124	13171.88
433.233	13020.88
433.342	13089.88
433.451	13052.88
433.56	12863.88
433.669	12995.88
433.778	12929.88
433.886	13322.88
433.995	13114.88
434.104	13413.88
434.213	13547.88
434.322	13457.88
434.431	13868.88
434.54	14163.88
434.649	14239.88
434.757	14195.88
434.866	14000.88
434.975	13863.88
435.084	13782.88
435.193	13549.88
435.301	13627.88
435.41	13526.88
435.519	13452.88
435.628	12678.88
435.737	12658.88
435.845	12570.88
435.954	12273.88
436.063	12335.88
436.171	12378.88
436.28	12152.88
436.389	12510.88
436.498	12180.88
436.606	12281.88
436.715	12440.88
436.823	12104.88
436.932	11906.88
437.041	11872.88
437.149	11879.88
437.258	11598.88
437.367	11403.88
437.475	11627.88
437.584	11848.88
437.692	11642.88
437.801	12652.88
437.91	11474.88
438.018	11443.88
438.127	11302.88
438.235	11281.88
438.344	11495.88
438.452	11374.88
438.561	11169.88
438.669	11182.88
438.778	11091.88
438.886	11145.88
438.995	11053.88
439.103	11265.88
439.212	11270.88
439.32	11278.88
439.428	11233.88
439.537	11143.88
439.645	11418.88
439.754	11392.88
439.862	11200.88
439.97	11388.88
440.079	11505.88
440.187	11297.88
440.295	11629.88
440.404	11505.88
440.512	11600.88
440.62	11591.88
440.729	11744.88
440.837	11815.88
440.945	12466.88
441.054	12008.88
441.162	12105.88
441.27	12364.88
441.378	12632.88
441.487	12567.88
441.595	12908.88
441.703	12652.88
441.811	12244.88
441.92	12337.88
442.028	12047.88
442.136	12100.88
442.244	12101.88
442.352	12154.88
442.461	11980.88
442.569	11901.88
442.677	12108.88
442.785	12204.88
442.893	11917.88
443.001	12113.88
443.109	11976.88
443.217	12054.88
443.325	12166.88
443.434	12742.88
443.542	12576.88
443.65	12523.88
443.758	12653.88
443.866	12540.88
443.974	13077.88
444.082	12881.88
444.19	13208.88
444.298	13346.88
444.406	13671.88
444.514	14017.88
444.622	13925.88
444.73	13909.88
444.838	13718.88
444.946	13756.88
445.054	13440.88
445.161	13226.88
445.269	12933.88
445.377	13057.88
445.485	12853.88
445.593	12540.88
445.701	12653.88
445.809	12622.88
445.917	12432.88
446.025	12507.88
446.132	12641.88
446.24	12346.88
446.348	12350.88
446.456	12239.88
446.564	12148.88
446.671	12342.88
446.779	12278.88
446.887	12214.88
446.995	12030.88
447.102	12044.88
447.21	12131.88
447.318	12024.88
447.426	12126.88
447.533	12357.88
447.641	13127.88
447.749	12224.88
447.856	12268.88
447.964	12077.88
448.072	12067.88
448.179	12113.88
448.287	12122.88
448.395	12234.88
448.502	12089.88
448.61	12238.88
448.718	12242.88
448.825	12344.88
448.933	12116.88
449.04	12174.88
449.148	12395.88
449.256	12476.88
449.363	12371.88
449.471	12534.88
449.578	12727.88
449.686	12547.88
449.793	13012.88
449.901	12820.88
450.008	12901.88
450.116	13049.88
450.223	13002.88
450.331	13320.88
450.438	13438.88
450.546	13465.88
450.653	13588.88
450.76	13635.88
450.868	13662.88
450.975	13908.88
451.083	13892.88
451.19	13866.88
451.297	13695.88
451.405	14016.88
451.512	14052.88
451.619	14025.88
451.727	14217.88
451.834	13988.88
451.941	14141.88
452.049	14180.88
452.156	14262.88
452.263	14364.88
452.371	14511.88
452.478	14317.88
452.585	14511.88
452.692	14511.88
452.8	14511.88
452.907	14511.88
453.014	14511.88
453.121	14511.88
453.229	14511.88
453.336	14511.88
453.443	14511.88
453.55	14511.88
453.657	14511.88
453.765	14511.88
453.872	14511.88
453.979	14511.88
454.086	14511.88
454.193	14511.88
454.3	14511.88
454.407	14511.88
454.514	14511.88
454.621	14511.88
454.729	14511.88
454.836	14511.88
454.943	14511.88
455.05	14511.88
455.157	14511.88
455.264	14511.88
455.371	14511.88
455.478	14511.88
455.585	14511.88
455.692	14511.88
455.799	14511.88
455.906	14511.88
456.013	14511.88
456.12	14511.88
456.227	14511.88
456.334	14511.88
456.44	14511.88
456.547	14511.88
456.654	14511.88
456.761	14511.88
456.868	14511.88
456.975	14511.88
457.082	14511.88
457.189	14511.88
457.296	14511.88
457.402	14511.88
457.509	14511.88
457.616	14511.88
457.723	14511.88
457.83	14511.88
457.936	14511.88
458.043	14511.88
458.15	14511.88
458.257	14511.88
458.363	14511.88
458.47	14511.88
458.577	14511.88
458.684	14511.88
458.79	14511.88
458.897	14511.88
459.004	14511.88
459.11	14511.88
459.217	14511.88
459.324	14511.88
459.43	14511.88
459.537	14511.88
459.644	14511.88
459.75	14511.88
459.857	14511.88
459.964	14511.88
460.07	14511.88
460.177	14511.88
460.283	14511.88
460.39	14511.88
460.496	14511.88
460.603	14511.88
460.71	14511.88
460.816	14511.88
460.923	14511.88
461.029	14511.88
461.136	14511.88
461.242	14511.88
461.349	14511.88
461.455	14511.88
461.562	14511.88
461.668	14511.88
461.774	14511.88
461.881	14511.88
461.987	14511.88
462.094	14511.88
462.2	14511.88
462.307	14511.88
462.413	14511.88
462.519	14511.88
462.626	14511.88
462.732	14511.88
462.838	14511.88
462.945	14511.88
463.051	14511.88
463.157	14511.88
463.264	14511.88
463.37	14511.88
463.476	14511.88
463.583	14511.88
463.689	14511.88
463.795	14511.88
463.901	14511.88
464.008	14511.88
464.114	14511.88
464.22	14511.88
464.326	14511.88
464.433	14511.88
464.539	14511.88
464.645	14511.88
464.751	14511.88
464.857	14511.88
464.963	14511.88
465.07	14511.88
465.176	14511.88
465.282	14511.88
465.388	14511.88
465.494	14511.88
465.6	14511.88
465.706	14511.88
465.812	14511.88
465.918	14511.88
466.024	14511.88
466.131	14511.88
466.237	14511.88
466.343	14511.88
466.449	14511.88
466.555	14511.88
466.661	14511.88
466.767	14511.88
466.873	14511.88
466.979	14511.88
467.085	14511.88
467.191	14511.88
467.296	14511.88
467.402	14511.88
467.508	14511.88
467.614	14511.88
467.72	14511.88
467.826	14511.88
467.932	14511.88
468.038	14511.88
468.144	14511.88
468.25	14511.88
468.355	14511.88
468.461	14511.88
468.567	14511.88
468.673	14511.88
468.779	14511.88
468.885	14511.88
468.99	14511.88
469.096	14511.88
469.202	14511.88
469.308	14511.88
469.413	14511.88
469.519	14511.88
469.625	14511.88
469.731	14511.88
469.836	14511.88
469.942	14511.88
470.048	14511.88
470.153	14511.88
470.259	14511.88
470.365	14511.88
470.47	14511.88
470.576	14511.88
470.682	14511.88
470.787	14511.88
470.893	14511.88
470.999	14511.88
471.104	14333.88
471.21	14104.88
471.315	14083.88
471.421	13991.88
471.527	13945.88
471.632	13920.88
471.738	13749.88
471.843	13440.88
471.949	13454.88
472.054	13440.88
472.16	13114.88
472.265	13217.88
472.371	13123.88
472.476	12993.88
472.582	13202.88
472.687	13089.88
472.793	12886.88
472.898	12802.88
473.003	12896.88
473.109	12626.88
473.214	12590.88
473.32	12610.88
473.425	12600.88
473.53	12572.88
473.636	12619.88
473.741	12453.88
473.847	12324.88
473.952	12522.88
474.057	12614.88
474.163	12643.88
474.268	12405.88
474.373	12718.88
474.478	12394.88
474.584	12268.88
474.689	12506.88
474.794	12420.88
474.9	12684.88
475.005	12366.88
475.11	12619.88
475.215	12311.88
475.321	12486.88
475.426	12833.88
475.531	12485.88
475.636	12429.88
475.741	12555.88
475.846	12842.88
475.952	12805.88
476.057	12669.88
476.162	12898.88
476.267	12721.88
476.372	13058.88
476.477	12756.88
476.582	12859.88
476.687	12981.88
476.793	12984.88
476.898	12948.88
477.003	13046.88
477.108	13203.88
477.213	13178.88
477.318	13220.88
477.423	13594.88
477.528	13673.88
477.633	13622.88
477.738	13952.88
477.843	13853.88
477.948	13924.88
478.053	14122.88
478.158	14100.88
478.263	14246.88
478.368	14300.88
478.473	14485.88
478.578	14511.88
478.682	14511.88
478.787	14511.88
478.892	14511.88
478.997	14511.88
479.102	14511.88
479.207	14511.88
479.312	14511.88
479.417	14511.88
479.521	14511.88
479.626	14511.88
479.731	14511.88
479.836	14511.88
479.941	14511.88
480.045	14511.88
480.15	14511.88
480.255	14511.88
480.36	14511.88
480.465	14511.88
480.569	14511.88
480.674	14511.88
480.779	14511.88
480.883	14511.88
480.988	14511.88
481.093	14511.88
481.197	14511.88
481.302	14511.88
481.407	14511.88
481.511	14511.88
481.616	14511.88
481.721	14511.88
481.825	14511.88
481.93	14511.88
482.035	14511.88
482.139	14511.88
482.244	14511.88
482.348	14511.88
482.453	14511.88
482.557	14511.88
482.662	14511.88
482.767	14511.88
482.871	14511.88
482.976	14511.88
483.08	14511.88
483.185	14511.88
483.289	14511.88
483.394	14511.88
483.498	14511.88
483.603	14511.88
483.707	14511.88
483.811	14511.88
483.916	14511.88
484.02	14511.88
484.125	14511.88
484.229	14511.88
484.333	14511.88
484.438	14511.88
484.542	14511.88
484.647	14511.88
484.751	14511.88
484.855	14511.88
484.96	14511.88
485.064	14511.88
485.168	14511.88
485.273	14511.88
485.377	14511.88
485.481	14511.88
485.585	14511.88
485.69	14511.88
485.794	14511.88
485.898	14511.88
486.002	14511.88
486.107	14511.88
486.211	14511.88
486.315	14511.88
486.419	14511.88
486.524	14511.88
486.628	14511.88
486.732	14511.88
486.836	14511.88
486.94	14511.88
487.044	14511.88
487.148	14511.88
487.253	14511.88
487.357	14511.88
487.461	14511.88
487.565	14511.88
487.669	14511.88
487.773	14511.88
487.877	14511.88
487.981	14511.88
488.085	14511.88
488.189	14511.88
488.293	14511.88
488.397	14511.88
488.501	14511.88
488.605	14511.88
488.709	14511.88
488.813	14511.88
488.917	14511.88
489.021	14511.88
489.125	14511.88
489.229	14511.88
489.333	14511.88
489.437	14511.88
489.541	14511.88
489.645	14511.88
489.749	14511.88
489.853	14511.88
489.956	14511.88
490.06	14511.88
490.164	14511.88
490.268	14511.88
490.372	14511.88
490.476	14511.88
490.579	14511.88
490.683	14511.88
490.787	14511.88
490.891	14511.88
490.995	14511.88
491.098	14511.88
491.202	14511.88
491.306	14511.88
491.41	14511.88
491.513	14511.88
491.617	14511.88
491.721	14511.88
491.824	14511.88
491.928	14511.88
492.032	14511.88
492.136	14511.88
492.239	14511.88
492.343	14511.88
492.446	14511.88
492.55	14511.88
492.654	14511.88
492.757	14511.88
492.861	14511.88
492.965	14511.88
493.068	14511.88
493.172	14511.88
493.275	14511.88
493.379	14511.88
493.482	14511.88
493.586	14511.88
493.689	14511.88
493.793	14511.88
493.896	14511.88
494	14511.88
494.103	14511.88
494.207	14511.88
494.31	14511.88
494.414	14511.88
494.517	14511.88
494.621	14511.88
494.724	14511.88
494.828	14511.88
494.931	14511.88
495.034	14511.88
495.138	14511.88
495.241	14511.88
495.345	14511.88
495.448	14511.88
495.551	14511.88
495.655	14511.88
495.758	14511.88
495.861	14511.88
495.965	14511.88
496.068	14511.88
496.171	14511.88
496.274	14511.88
496.378	14511.88
496.481	14511.88
496.584	14511.88
496.687	14511.88
496.791	14511.88
496.894	14511.88
496.997	14511.88
497.1	14511.88
497.204	14511.88
497.307	14511.88
497.41	14511.88
497.513	14511.88
497.616	14511.88
497.719	14511.88
497.823	14511.88
497.926	14511.88
498.029	14511.88
498.132	14511.88
498.235	14511.88
498.338	14511.88
498.441	14511.88
498.544	14511.88
498.647	14511.88
498.75	14511.88
498.853	14511.88
498.956	14511.88
499.059	14511.88
499.163	14511.88
499.266	14511.88
499.369	14511.88
499.471	14511.88
499.574	14511.88
499.677	14511.88
499.78	14511.88
499.883	14511.88
499.986	14511.88
500.089	14511.88
500.192	14511.88
500.295	14511.88
500.398	14511.88
500.501	14511.88
500.604	14511.88
500.707	14511.88
500.809	14511.88
500.912	14511.88
501.015	14511.88
501.118	14511.88
501.221	14511.88
501.324	14511.88
501.426	14511.88
501.529	14511.88
501.632	14511.88
501.735	14511.88
501.837	14511.88
501.94	14511.88
502.043	14511.88
502.146	14511.88
502.248	14511.88
502.351	14511.88
502.454	14511.88
502.557	14511.88
502.659	14511.88
502.762	14511.88
502.865	14511.88
502.967	14511.88
503.07	14511.88
503.173	14511.88
503.275	14511.88
503.378	14511.88
503.48	14511.88
503.583	14511.88
503.686	14511.88
503.788	14511.88
503.891	14511.88
503.993	14511.88
504.096	14511.88
504.198	14511.88
504.301	14511.88
504.403	14511.88
504.506	14511.88
504.608	14511.88
504.711	14511.88
504.813	14511.88
504.916	14511.88
505.018	14511.88
505.121	14511.88
505.223	14511.88
505.326	14511.88
505.428	14511.88
505.531	14511.88
505.633	14511.88
505.735	14511.88
505.838	14511.88
505.94	14511.88
506.042	14374.88
506.145	14346.88
506.247	14185.88
506.35	14103.88
506.452	14072.88
506.554	14094.88
506.656	13840.88
506.759	13746.88
506.861	13694.88
506.963	13666.88
507.066	13602.88
507.168	13704.88
507.27	13629.88
507.372	13336.88
507.475	13263.88
507.577	13383.88
507.679	13257.88
507.781	12961.88
507.883	13137.88
507.986	12977.88
508.088	12764.88
508.19	13003.88
508.292	12923.88
508.394	13080.88
508.496	12880.88
508.598	12812.88
508.701	12918.88
508.803	12795.88
508.905	12708.88
509.007	12834.88
509.109	12546.88
509.211	12685.88
509.313	12594.88
509.415	12471.88
509.517	12550.88
509.619	12382.88
509.721	12411.88
509.823	12470.88
509.925	12716.88
510.027	12389.88
510.129	12301.88
510.231	12502.88
510.333	12306.88
510.435	12354.88
510.537	12260.88
510.639	12380.88
510.741	12378.88
510.843	12395.88
510.945	12190.88
511.047	12350.88
511.148	12467.88
511.25	12468.88
511.352	12377.88
511.454	12175.88
511.556	12575.88
511.658	12220.88
511.76	12451.88
511.861	12740.88
511.963	12316.88
512.065	12243.88
512.167	12230.88
512.268	12568.88
512.37	12453.88
512.472	12521.88
512.574	12483.88
512.676	12505.88
512.777	12434.88
512.879	12551.88
512.981	12389.88
513.082	12556.88
513.184	12457.88
513.286	12843.88
513.387	12802.88
513.489	12667.88
513.591	12694.88
513.692	12664.88
513.794	12778.88
513.896	12782.88
513.997	12670.88
514.099	12728.88
514.2	13050.88
514.302	12755.88
514.404	12908.88
514.505	12959.88
514.607	13035.88
514.708	12986.88
514.81	13244.88
514.911	13315.88
515.013	13415.88
515.114	13498.88
515.216	13392.88
515.317	13620.88
515.419	13561.88
515.52	13941.88
515.622	13812.88
515.723	13831.88
515.825	14312.88
515.926	14213.88
516.027	14250.88
516.129	14511.88
516.23	14511.88
516.332	14511.88
516.433	14511.88
516.534	14511.88
516.636	14511.88
516.737	14511.88
516.838	14511.88
516.94	14511.88
517.041	14511.88
517.142	14511.88
517.244	14511.88
517.345	14511.88
517.446	14511.88
517.547	14511.88
517.649	14511.88
517.75	14511.88
517.851	14511.88
517.952	14511.88
518.054	14511.88
518.155	14511.88
518.256	14511.88
518.357	14511.88
518.458	14511.88
518.56	14511.88
518.661	14511.88
518.762	14511.88
518.863	14511.88
518.964	14511.88
519.065	14511.88
519.166	14511.88
519.268	14511.88
519.369	14511.88
519.47	14511.88
519.571	14511.88
519.672	14511.88
519.773	14511.88
519.874	14511.88
519.975	14511.88
520.076	14511.88
520.177	14511.88
520.278	14511.88
520.379	14489.88
520.48	14313.88
520.581	14207.88
520.682	14305.88
520.783	14403.88
520.884	14394.88
520.985	14264.88
521.086	14378.88
521.187	14309.88
521.288	14051.88
521.389	14033.88
521.489	14057.88
521.59	13888.88
521.691	14131.88
521.792	14061.88
521.893	14120.88
521.994	14061.88
522.095	13861.88
522.195	13899.88
522.296	14096.88
522.397	13932.88
522.498	13970.88
522.599	13953.88
522.699	13987.88
522.8	13844.88
522.901	13972.88
523.002	13815.88
523.102	14074.88
523.203	13890.88
523.304	14072.88
523.405	13948.88
523.505	13865.88
523.606	14038.88
523.707	13992.88
523.807	13947.88
523.908	14032.88
524.009	14096.88
524.109	13908.88
524.21	13955.88
524.31	14075.88
524.411	14093.88
524.512	14076.88
524.612	14056.88
524.713	14302.88
524.813	14032.88
524.914	14243.88
525.014	14511.88
525.115	14284.88
525.216	13912.88
525.316	13944.88
525.417	13950.88
525.517	13911.88
525.618	14000.88
525.718	13924.88
525.819	13869.88
525.919	14020.88
526.019	13951.88
526.12	13944.88
526.22	13876.88
526.321	14014.88
526.421	13866.88
526.522	13840.88
526.622	13966.88
526.722	13835.88
526.823	13807.88
526.923	14017.88
527.023	13992.88
527.124	13818.88
527.224	14027.88
527.324	13922.88
527.425	13961.88
527.525	13808.88
527.625	13979.88
527.726	13761.88
527.826	13958.88
527.926	13889.88
528.026	13956.88
528.127	13855.88
528.227	13938.88
528.327	13827.88
528.427	13714.88
528.528	13919.88
528.628	13828.88
528.728	13723.88
528.828	13940.88
528.928	13964.88
529.029	13730.88
529.129	13683.88
529.229	13913.88
529.329	13767.88
529.429	13767.88
529.529	13855.88
529.629	13720.88
529.729	13574.88
529.829	13838.88
529.93	13499.88
530.03	13359.88
530.13	13529.88
530.23	13585.88
530.33	13517.88
530.43	13483.88
530.53	13584.88
530.63	13503.88
530.73	13499.88
530.83	13398.88
530.93	13392.88
531.03	13322.88
531.13	13260.88
531.23	13265.88
531.33	13312.88
531.429	13484.88
531.529	13365.88
531.629	13364.88
