Data from sinsal_HRC06701__58__119.txt Node

Date: Thu Apr 18 01:42:01 CDT 2024
User: Estudiantes 2
Spectrometer: HR+C0670
Trigger mode: 4
Integration Time (sec): 1.000000E0
Scans to average: 1
Electric dark correction enabled: true
Nonlinearity correction enabled: false
Boxcar width: 0
XAxis mode: Wavelengths
Number of Pixels in Spectrum: 2048
>>>>>Begin Spectral Data<<<<<
407.81	-136.94
407.921	-136.94
408.032	-136.94
408.143	-65.94
408.254	-86.94
408.365	23.06
408.476	209.06
408.587	-23.94
408.699	-36.94
408.81	-25.94
408.921	-19.94
409.032	-34.94
409.143	21.06
409.254	70.06
409.365	85.06
409.476	-39.94
409.587	36.06
409.698	27.06
409.809	69.06
409.92	-7.94
410.031	-19.94
410.142	27.06
410.253	13.06
410.364	39.06
410.475	368.06
410.585	1780.06
410.696	2020.06
410.807	1913.06
410.918	1906.06
411.029	1937.06
411.14	1964.06
411.251	1981.06
411.362	2028.06
411.472	1995.06
411.583	1948.06
411.694	2020.06
411.805	2000.06
411.916	1992.06
412.026	2064.06
412.137	2096.06
412.248	2010.06
412.359	1975.06
412.47	1950.06
412.58	1849.06
412.691	1975.06
412.802	1996.06
412.912	1902.06
413.023	1957.06
413.134	1940.06
413.245	2002.06
413.355	1955.06
413.466	1904.06
413.577	1963.06
413.687	2050.06
413.798	1857.06
413.909	2067.06
414.019	2043.06
414.13	2007.06
414.24	1926.06
414.351	1978.06
414.462	2076.06
414.572	2029.06
414.683	2045.06
414.793	1999.06
414.904	2244.06
415.014	1977.06
415.125	1904.06
415.235	1949.06
415.346	2118.06
415.456	1992.06
415.567	1984.06
415.677	1991.06
415.788	2003.06
415.898	1886.06
416.009	1964.06
416.119	2015.06
416.23	1945.06
416.34	1870.06
416.45	1976.06
416.561	2460.06
416.671	2032.06
416.782	1933.06
416.892	1967.06
417.002	2043.06
417.113	2019.06
417.223	1983.06
417.333	1997.06
417.444	2019.06
417.554	2064.06
417.664	2049.06
417.775	1938.06
417.885	2067.06
417.995	2029.06
418.106	2197.06
418.216	2216.06
418.326	2190.06
418.436	2219.06
418.547	2210.06
418.657	2075.06
418.767	2229.06
418.877	2227.06
418.987	2229.06
419.098	2220.06
419.208	2234.06
419.318	2265.06
419.428	2318.06
419.538	2184.06
419.648	2285.06
419.759	2300.06
419.869	2262.06
419.979	2251.06
420.089	2216.06
420.199	2282.06
420.309	2330.06
420.419	2304.06
420.529	2234.06
420.639	2498.06
420.749	2314.06
420.859	2323.06
420.969	2316.06
421.079	2519.06
421.189	2336.06
421.299	2282.06
421.409	2343.06
421.519	2411.06
421.629	2377.06
421.739	2372.06
421.849	2362.06
421.959	2308.06
422.069	2466.06
422.179	2434.06
422.289	2463.06
422.399	2501.06
422.509	2603.06
422.619	5137.06
422.729	2717.06
422.838	2500.06
422.948	2492.06
423.058	2525.06
423.168	2598.06
423.278	2556.06
423.388	2587.06
423.498	2721.06
423.607	2694.06
423.717	2925.06
423.827	2798.06
423.937	2751.06
424.046	2749.06
424.156	2841.06
424.266	2788.06
424.376	2976.06
424.485	2831.06
424.595	2802.06
424.705	2756.06
424.815	2810.06
424.924	3212.06
425.034	2887.06
425.144	2752.06
425.253	2826.06
425.363	2988.06
425.473	2962.06
425.582	2857.06
425.692	2939.06
425.801	2845.06
425.911	3036.06
426.021	3021.06
426.13	3076.06
426.24	3164.06
426.349	3105.06
426.459	3005.06
426.568	3008.06
426.678	3159.06
426.787	3072.06
426.897	2992.06
427.006	3086.06
427.116	3161.06
427.225	3110.06
427.335	3194.06
427.444	3236.06
427.554	3198.06
427.663	3201.06
427.773	3163.06
427.882	3267.06
427.992	3209.06
428.101	3278.06
428.21	3213.06
428.32	3291.06
428.429	3252.06
428.539	3513.06
428.648	3311.06
428.757	3373.06
428.867	3505.06
428.976	3440.06
429.085	3433.06
429.195	3404.06
429.304	3377.06
429.413	3432.06
429.523	3560.06
429.632	3584.06
429.741	3504.06
429.85	3465.06
429.96	3644.06
430.069	3520.06
430.178	3545.06
430.287	3898.06
430.397	3608.06
430.506	3591.06
430.615	3661.06
430.724	3620.06
430.833	3643.06
430.943	3682.06
431.052	3668.06
431.161	3612.06
431.27	3795.06
431.379	3807.06
431.488	4039.06
431.597	3908.06
431.706	3976.06
431.816	3824.06
431.925	3941.06
432.034	3890.06
432.143	3939.06
432.252	3860.06
432.361	3886.06
432.47	3934.06
432.579	3914.06
432.688	3911.06
432.797	3925.06
432.906	3777.06
433.015	3982.06
433.124	4218.06
433.233	3967.06
433.342	4034.06
433.451	4014.06
433.56	3938.06
433.669	3971.06
433.778	4024.06
433.886	4054.06
433.995	3947.06
434.104	4264.06
434.213	4125.06
434.322	4134.06
434.431	4208.06
434.54	4327.06
434.649	4474.06
434.757	4341.06
434.866	4344.06
434.975	4347.06
435.084	4232.06
435.193	4304.06
435.301	4255.06
435.41	4353.06
435.519	4520.06
435.628	3985.06
435.737	3874.06
435.845	3803.06
435.954	3754.06
436.063	3786.06
436.171	3727.06
436.28	3794.06
436.389	3812.06
436.498	3712.06
436.606	3806.06
436.715	3940.06
436.823	3620.06
436.932	3676.06
437.041	3610.06
437.149	3681.06
437.258	3508.06
437.367	3527.06
437.475	3408.06
437.584	3717.06
437.692	3550.06
437.801	4766.06
437.91	3572.06
438.018	3518.06
438.127	3371.06
438.235	3479.06
438.344	3531.06
438.452	3347.06
438.561	3302.06
438.669	3435.06
438.778	3426.06
438.886	3328.06
438.995	3336.06
439.103	3409.06
439.212	3405.06
439.32	3387.06
439.428	3421.06
439.537	3405.06
439.645	3556.06
439.754	3508.06
439.862	3344.06
439.97	3450.06
440.079	3535.06
440.187	3416.06
440.295	3540.06
440.404	3495.06
440.512	3522.06
440.62	3602.06
440.729	3564.06
440.837	3787.06
440.945	4243.06
441.054	3801.06
441.162	3722.06
441.27	3815.06
441.378	3751.06
441.487	3853.06
441.595	4112.06
441.703	3899.06
441.811	3792.06
441.92	3769.06
442.028	3640.06
442.136	3705.06
442.244	3766.06
442.352	3678.06
442.461	3626.06
442.569	3595.06
442.677	3603.06
442.785	3638.06
442.893	3599.06
443.001	3690.06
443.109	3596.06
443.217	3671.06
443.325	3680.06
443.434	4118.06
443.542	3976.06
443.65	3802.06
443.758	3903.06
443.866	3832.06
443.974	4086.06
444.082	3886.06
444.19	4034.06
444.298	4060.06
444.406	4208.06
444.514	4206.06
444.622	4278.06
444.73	4326.06
444.838	4196.06
444.946	4180.06
445.054	4032.06
445.161	4012.06
445.269	3824.06
445.377	4047.06
445.485	3867.06
445.593	3868.06
445.701	4042.06
445.809	3832.06
445.917	3807.06
446.025	3716.06
446.132	3863.06
446.24	3730.06
446.348	3784.06
446.456	3696.06
446.564	3725.06
446.671	3699.06
446.779	3762.06
446.887	3735.06
446.995	3710.06
447.102	3785.06
447.21	3786.06
447.318	3649.06
447.426	3627.06
447.533	3813.06
447.641	4666.06
447.749	3761.06
447.856	3649.06
447.964	3685.06
448.072	3787.06
448.179	3686.06
448.287	3711.06
448.395	3749.06
448.502	3680.06
448.61	3786.06
448.718	3748.06
448.825	3816.06
448.933	3717.06
449.04	3769.06
449.148	3790.06
449.256	3782.06
449.363	3851.06
449.471	3816.06
449.578	3981.06
449.686	3882.06
449.793	4008.06
449.901	3841.06
450.008	3868.06
450.116	3996.06
450.223	3971.06
450.331	4092.06
450.438	4047.06
450.546	4126.06
450.653	4246.06
450.76	4283.06
450.868	4280.06
450.975	4422.06
451.083	4273.06
451.19	4351.06
451.297	4320.06
451.405	4386.06
451.512	4260.06
451.619	4510.06
451.727	4511.06
451.834	4310.06
451.941	4371.06
452.049	4334.06
452.156	4383.06
452.263	4475.06
452.371	4548.06
452.478	4448.06
452.585	4536.06
452.692	4480.06
452.8	4619.06
452.907	4737.06
453.014	4526.06
453.121	4563.06
453.229	4587.06
453.336	4667.06
453.443	4642.06
453.55	4651.06
453.657	4669.06
453.765	4778.06
453.872	4656.06
453.979	4774.06
454.086	4810.06
454.193	4833.06
454.3	4650.06
454.407	4943.06
454.514	4939.06
454.621	4801.06
454.729	4825.06
454.836	4807.06
454.943	4830.06
455.05	4874.06
455.157	4946.06
455.264	4862.06
455.371	4979.06
455.478	5073.06
455.585	6157.06
455.692	5161.06
455.799	5269.06
455.906	4955.06
456.013	4954.06
456.12	5023.06
456.227	5102.06
456.334	5086.06
456.44	5318.06
456.547	5277.06
456.654	5119.06
456.761	5282.06
456.868	5394.06
456.975	5261.06
457.082	5197.06
457.189	5250.06
457.296	5200.06
457.402	5324.06
457.509	5251.06
457.616	5392.06
457.723	5611.06
457.83	5520.06
457.936	5504.06
458.043	5843.06
458.15	5598.06
458.257	5770.06
458.363	5828.06
458.47	5888.06
458.577	6048.06
458.684	5984.06
458.79	6197.06
458.897	6217.06
459.004	6412.06
459.11	6286.06
459.217	6286.06
459.324	6487.06
459.43	6617.06
459.537	6709.06
459.644	6773.06
459.75	6763.06
459.857	7083.06
459.964	6905.06
460.07	6945.06
460.177	7010.06
460.283	7170.06
460.39	7343.06
460.496	6998.06
460.603	7124.06
460.71	7061.06
460.816	7144.06
460.923	7052.06
461.029	7044.06
461.136	7191.06
461.242	6955.06
461.349	7158.06
461.455	7221.06
461.562	7453.06
461.668	7410.06
461.774	7304.06
461.881	7364.06
461.987	7259.06
462.094	7506.06
462.2	7628.06
462.307	7610.06
462.413	7659.06
462.519	7758.06
462.626	8168.06
462.732	8120.06
462.838	8338.06
462.945	8663.06
463.051	8666.06
463.157	8572.06
463.264	8448.06
463.37	8229.06
463.476	7970.06
463.583	7860.06
463.689	7939.06
463.795	7937.06
463.901	7895.06
464.008	7961.06
464.114	7922.06
464.22	7856.06
464.326	7648.06
464.433	7625.06
464.539	7518.06
464.645	7223.06
464.751	7460.06
464.857	7136.06
464.963	6787.06
465.07	6896.06
465.176	6537.06
465.282	6351.06
465.388	6386.06
465.494	6048.06
465.6	5908.06
465.706	5915.06
465.812	5769.06
465.918	5847.06
466.024	5705.06
466.131	5642.06
466.237	5659.06
466.343	5427.06
466.449	5425.06
466.555	5264.06
466.661	5118.06
466.767	5203.06
466.873	5215.06
466.979	5259.06
467.085	5084.06
467.191	5177.06
467.296	5124.06
467.402	4977.06
467.508	5148.06
467.614	5022.06
467.72	4812.06
467.826	4819.06
467.932	4859.06
468.038	4788.06
468.144	4753.06
468.25	4663.06
468.355	4624.06
468.461	4659.06
468.567	4672.06
468.673	4614.06
468.779	4583.06
468.885	4592.06
468.99	4573.06
469.096	4524.06
469.202	4680.06
469.308	4615.06
469.413	4654.06
469.519	4675.06
469.625	4682.06
469.731	4806.06
469.836	4696.06
469.942	4880.06
470.048	4757.06
470.153	4679.06
470.259	4839.06
470.365	4791.06
470.47	4731.06
470.576	4699.06
470.682	4631.06
470.787	4615.06
470.893	4518.06
470.999	4525.06
471.104	4461.06
471.21	4360.06
471.315	4281.06
471.421	4202.06
471.527	4414.06
471.632	4383.06
471.738	4228.06
471.843	4081.06
471.949	4151.06
472.054	4198.06
472.16	4028.06
472.265	4137.06
472.371	4099.06
472.476	3980.06
472.582	4060.06
472.687	3928.06
472.793	3940.06
472.898	3946.06
473.003	4002.06
473.109	3862.06
473.214	3775.06
473.32	3854.06
473.425	3928.06
473.53	3854.06
473.636	3879.06
473.741	3788.06
473.847	3810.06
473.952	3793.06
474.057	3896.06
474.163	3727.06
474.268	3748.06
474.373	3899.06
474.478	3770.06
474.584	3721.06
474.689	3872.06
474.794	3823.06
474.9	4011.06
475.005	3820.06
475.11	3939.06
475.215	3792.06
475.321	3797.06
475.426	4048.06
475.531	3933.06
475.636	3802.06
475.741	3889.06
475.846	3982.06
475.952	4113.06
476.057	3953.06
476.162	3964.06
476.267	4030.06
476.372	4260.06
476.477	3947.06
476.582	4033.06
476.687	4013.06
476.793	3930.06
476.898	3931.06
477.003	3970.06
477.108	4091.06
477.213	4024.06
477.318	4083.06
477.423	4209.06
477.528	4289.06
477.633	4212.06
477.738	4256.06
477.843	4203.06
477.948	4248.06
478.053	4314.06
478.158	4337.06
478.263	4344.06
478.368	4368.06
478.473	4578.06
478.578	4468.06
478.682	4506.06
478.787	4624.06
478.892	4444.06
478.997	4576.06
479.102	4626.06
479.207	4453.06
479.312	4657.06
479.417	4573.06
479.521	4584.06
479.626	4712.06
479.731	4648.06
479.836	4641.06
479.941	4800.06
480.045	4792.06
480.15	4945.06
480.255	4852.06
480.36	4824.06
480.465	5003.06
480.569	5005.06
480.674	4759.06
480.779	4748.06
480.883	4819.06
480.988	4836.06
481.093	4752.06
481.197	4765.06
481.302	4692.06
481.407	4655.06
481.511	6295.06
481.616	4854.06
481.721	4783.06
481.825	4907.06
481.93	4714.06
482.035	4697.06
482.139	4805.06
482.244	4877.06
482.348	4806.06
482.453	4810.06
482.557	4888.06
482.662	4814.06
482.767	4684.06
482.871	4866.06
482.976	4910.06
483.08	4905.06
483.185	5130.06
483.289	4951.06
483.394	4989.06
483.498	5160.06
483.603	4983.06
483.707	5150.06
483.811	5244.06
483.916	5291.06
484.02	5097.06
484.125	5282.06
484.229	5260.06
484.333	5283.06
484.438	5356.06
484.542	5386.06
484.647	5357.06
484.751	5479.06
484.855	5621.06
484.96	5390.06
485.064	5569.06
485.168	5631.06
485.273	5565.06
485.377	5701.06
485.481	5802.06
485.585	5732.06
485.69	5727.06
485.794	5798.06
485.898	5823.06
486.002	5830.06
486.107	5835.06
486.211	5871.06
486.315	5922.06
486.419	5909.06
486.524	5941.06
486.628	5874.06
486.732	5838.06
486.836	5839.06
486.94	5928.06
487.044	5889.06
487.148	5915.06
487.253	5928.06
487.357	5926.06
487.461	6020.06
487.565	5988.06
487.669	5850.06
487.773	5913.06
487.877	5986.06
487.981	5954.06
488.085	5919.06
488.189	5850.06
488.293	6008.06
488.397	6328.06
488.501	5873.06
488.605	5876.06
488.709	5848.06
488.813	5925.06
488.917	5944.06
489.021	5922.06
489.125	6138.06
489.229	5908.06
489.333	6124.06
489.437	6004.06
489.541	6002.06
489.645	5927.06
489.749	5958.06
489.853	6104.06
489.956	6077.06
490.06	6060.06
490.164	6031.06
490.268	6087.06
490.372	6055.06
490.476	6022.06
490.579	6088.06
490.683	6668.06
490.787	6145.06
490.891	6099.06
490.995	6118.06
491.098	6016.06
491.202	6022.06
491.306	6159.06
491.41	6076.06
491.513	5980.06
491.617	6084.06
491.721	6143.06
491.824	6238.06
491.928	6148.06
492.032	6213.06
492.136	6029.06
492.239	6121.06
492.343	6108.06
492.446	6552.06
492.55	6280.06
492.654	6062.06
492.757	6041.06
492.861	6136.06
492.965	6120.06
493.068	6089.06
493.172	6128.06
493.275	6088.06
493.379	6101.06
493.482	6223.06
493.586	6274.06
493.689	6290.06
493.793	6105.06
493.896	6323.06
494	6220.06
494.103	6175.06
494.207	6475.06
494.31	6562.06
494.414	6200.06
494.517	6127.06
494.621	6140.06
494.724	6115.06
494.828	6169.06
494.931	5981.06
495.034	6065.06
495.138	6179.06
495.241	6019.06
495.345	6639.06
495.448	6185.06
495.551	6074.06
495.655	6136.06
495.758	6001.06
495.861	5945.06
495.965	6067.06
496.068	6104.06
496.171	6167.06
496.274	6210.06
496.378	6108.06
496.481	6159.06
496.584	6083.06
496.687	6225.06
496.791	6120.06
496.894	6205.06
496.997	6277.06
497.1	6215.06
497.204	6367.06
497.307	6329.06
497.41	6636.06
497.513	6682.06
497.616	6713.06
497.719	6570.06
497.823	6684.06
497.926	6719.06
498.029	6825.06
498.132	6828.06
498.235	6978.06
498.338	7256.06
498.441	7309.06
498.544	7474.06
498.647	7660.06
498.75	7825.06
498.853	8048.06
498.956	8082.06
499.059	8656.06
499.163	8538.06
499.266	8933.06
499.369	9288.06
499.471	9384.06
499.574	9924.06
499.677	10209.06
499.78	10567.06
499.883	10985.06
499.986	11491.06
500.089	11607.06
500.192	11944.06
500.295	12040.06
500.398	11848.06
500.501	11746.06
500.604	11434.06
500.707	11171.06
500.809	10593.06
500.912	10483.06
501.015	10185.06
501.118	9649.06
501.221	9268.06
501.324	8917.06
501.426	8514.06
501.529	8166.06
501.632	8016.06
501.735	7639.06
501.837	7580.06
501.94	7389.06
502.043	7141.06
502.146	7075.06
502.248	6914.06
502.351	6656.06
502.454	6541.06
502.557	6486.06
502.659	6324.06
502.762	6144.06
502.865	6090.06
502.967	5963.06
503.07	5903.06
503.173	5808.06
503.275	5791.06
503.378	5606.06
503.48	5664.06
503.583	5632.06
503.686	5540.06
503.788	5715.06
503.891	5550.06
503.993	5640.06
504.096	5444.06
504.198	5433.06
504.301	5403.06
504.403	5338.06
504.506	5377.06
504.608	5375.06
504.711	5299.06
504.813	5163.06
504.916	5027.06
505.018	4929.06
505.121	4725.06
505.223	4853.06
505.326	4783.06
505.428	4747.06
505.531	4611.06
505.633	4624.06
505.735	4446.06
505.838	4477.06
505.94	4521.06
506.042	4468.06
506.145	4341.06
506.247	4450.06
506.35	4266.06
506.452	4286.06
506.554	4294.06
506.656	4322.06
506.759	4269.06
506.861	4266.06
506.963	4263.06
507.066	4284.06
507.168	4321.06
507.27	4233.06
507.372	4062.06
507.475	4084.06
507.577	4094.06
507.679	4126.06
507.781	3964.06
507.883	4073.06
507.986	4026.06
508.088	4052.06
508.19	3998.06
508.292	4072.06
508.394	3921.06
508.496	3944.06
508.598	4017.06
508.701	3909.06
508.803	3906.06
508.905	3881.06
509.007	3762.06
509.109	3900.06
509.211	3965.06
509.313	3883.06
509.415	3767.06
509.517	3828.06
509.619	3874.06
509.721	3832.06
509.823	3829.06
509.925	3965.06
510.027	3717.06
510.129	3804.06
510.231	3879.06
510.333	3803.06
510.435	3831.06
510.537	3866.06
510.639	3851.06
510.741	3693.06
510.843	3748.06
510.945	3906.06
511.047	3808.06
511.148	3867.06
511.25	3781.06
511.352	3813.06
511.454	3701.06
511.556	3956.06
511.658	3811.06
511.76	3817.06
511.861	3978.06
511.963	3740.06
512.065	3714.06
512.167	3791.06
512.268	3968.06
512.37	3879.06
512.472	3809.06
512.574	3844.06
512.676	3866.06
512.777	3699.06
512.879	3780.06
512.981	3776.06
513.082	3852.06
513.184	3876.06
513.286	4226.06
513.387	3941.06
513.489	4041.06
513.591	3901.06
513.692	3965.06
513.794	3975.06
513.896	3871.06
513.997	3803.06
514.099	3852.06
514.2	4015.06
514.302	3986.06
514.404	3924.06
514.505	3971.06
514.607	4033.06
514.708	4001.06
514.81	4076.06
514.911	4100.06
515.013	4156.06
515.114	4129.06
515.216	4104.06
515.317	4099.06
515.419	4114.06
515.52	4297.06
515.622	4204.06
515.723	4282.06
515.825	4481.06
515.926	4346.06
516.027	4302.06
516.129	4307.06
516.23	4482.06
516.332	4488.06
516.433	4538.06
516.534	4744.06
516.636	4672.06
516.737	4667.06
516.838	5765.06
516.94	5043.06
517.041	4978.06
517.142	5219.06
517.244	5195.06
517.345	5232.06
517.446	5361.06
517.547	5338.06
517.649	5288.06
517.75	5304.06
517.851	5289.06
517.952	5540.06
518.054	5382.06
518.155	5360.06
518.256	5047.06
518.357	5260.06
518.458	5060.06
518.56	4877.06
518.661	4882.06
518.762	4923.06
518.863	4905.06
518.964	4818.06
519.065	4732.06
519.166	4729.06
519.268	4675.06
519.369	4886.06
519.47	4697.06
519.571	4626.06
519.672	4481.06
519.773	4591.06
519.874	4515.06
519.975	4552.06
520.076	4570.06
520.177	4544.06
520.278	4457.06
520.379	4528.06
520.48	4417.06
520.581	4366.06
520.682	4314.06
520.783	4421.06
520.884	4478.06
520.985	4410.06
521.086	4392.06
521.187	4366.06
521.288	4365.06
521.389	4405.06
521.489	4314.06
521.59	4236.06
521.691	4360.06
521.792	4334.06
521.893	4414.06
521.994	4452.06
522.095	4431.06
522.195	4307.06
522.296	4377.06
522.397	4451.06
522.498	4357.06
522.599	4238.06
522.699	4428.06
522.8	4368.06
522.901	4418.06
523.002	4427.06
523.102	4538.06
523.203	4387.06
523.304	4532.06
523.405	4437.06
523.505	4368.06
523.606	4383.06
523.707	4454.06
523.807	4353.06
523.908	4371.06
524.009	4498.06
524.109	4365.06
524.21	4270.06
524.31	4441.06
524.411	4504.06
524.512	4460.06
524.612	4493.06
524.713	4483.06
524.813	4396.06
524.914	4703.06
525.014	9224.06
525.115	4883.06
525.216	4369.06
525.316	4432.06
525.417	4418.06
525.517	4386.06
525.618	4472.06
525.718	4398.06
525.819	4344.06
525.919	4419.06
526.019	4348.06
526.12	4458.06
526.22	4306.06
526.321	4382.06
526.421	4307.06
526.522	4248.06
526.622	4315.06
526.722	4269.06
526.823	4277.06
526.923	4337.06
527.023	4380.06
527.124	4350.06
527.224	4374.06
527.324	4197.06
527.425	4318.06
527.525	4270.06
527.625	4323.06
527.726	4255.06
527.826	4436.06
527.926	4367.06
528.026	4306.06
528.127	4240.06
528.227	4454.06
528.327	4402.06
528.427	4266.06
528.528	4322.06
528.628	4461.06
528.728	4380.06
528.828	4479.06
528.928	4452.06
529.029	4369.06
529.129	4327.06
529.229	4367.06
529.329	4351.06
529.429	4360.06
529.529	4482.06
529.629	4249.06
529.729	4252.06
529.829	4371.06
529.93	4317.06
530.03	4280.06
530.13	4237.06
530.23	4254.06
530.33	4267.06
530.43	4198.06
530.53	4160.06
530.63	4103.06
530.73	4105.06
530.83	4156.06
530.93	4019.06
531.03	4098.06
531.13	4227.06
531.23	4184.06
531.33	4129.06
531.429	4225.06
531.529	4121.06
531.629	4158.06
531.729	4052.06
531.829	4050.06
531.929	4037.06
532.029	4089.06
532.129	4164.06
532.229	4054.06
532.328	4117.06
532.428	4094.06
532.528	3944.06
532.628	3885.06
532.728	4009.06
532.827	3927.06
532.927	4108.06
533.027	3980.06
533.127	4167.06
533.227	3987.06
533.326	4059.06
533.426	3945.06
533.526	4136.06
533.625	4060.06
533.725	4224.06
533.825	3937.06
533.924	3779.06
534.024	3839.06
534.124	3826.06
534.223	3864.06
534.323	4142.06
534.423	3902.06
534.522	3753.06
534.622	3677.06
534.722	3803.06
534.821	3803.06
534.921	3742.06
535.02	3699.06
535.12	3796.06
535.219	3854.06
535.319	3849.06
535.419	3745.06
535.518	3598.06
535.618	3706.06
535.717	3755.06
535.817	3471.06
535.916	3470.06
536.016	3657.06
536.115	3518.06
536.215	3442.06
536.314	3465.06
536.413	3453.06
536.513	3413.06
536.612	3455.06
536.712	3374.06
536.811	3457.06
536.91	3327.06
537.01	3352.06
537.109	3413.06
537.209	3315.06
537.308	3381.06
537.407	3322.06
537.507	3401.06
537.606	3399.06
537.705	3412.06
537.805	3357.06
