Data from sinsal_HRC06701__27__88.txt Node

Date: Thu Apr 18 01:41:30 CDT 2024
User: Estudiantes 2
Spectrometer: HR+C0670
Trigger mode: 4
Integration Time (sec): 1.000000E0
Scans to average: 1
Electric dark correction enabled: true
Nonlinearity correction enabled: false
Boxcar width: 0
XAxis mode: Wavelengths
Number of Pixels in Spectrum: 2048
>>>>>Begin Spectral Data<<<<<
407.81	-116.69
407.921	-116.69
408.032	-116.69
408.143	-109.69
408.254	-66.69
408.365	39.31
408.476	227.31
408.587	17.31
408.699	-32.69
408.81	-24.69
408.921	-5.69
409.032	-60.69
409.143	4.31
409.254	3.31
409.365	82.31
409.476	-24.69
409.587	-17.69
409.698	85.31
409.809	66.31
409.92	-53.69
410.031	3.31
410.142	26.31
410.253	-14.69
410.364	87.31
410.475	716.31
410.585	3598.31
410.696	3791.31
410.807	3768.31
410.918	3782.31
411.029	3890.31
411.14	3854.31
411.251	3830.31
411.362	3909.31
411.472	4031.31
411.583	3823.31
411.694	4003.31
411.805	3908.31
411.916	3912.31
412.026	4077.31
412.137	4050.31
412.248	3989.31
412.359	3917.31
412.47	3910.31
412.58	3916.31
412.691	3919.31
412.802	3835.31
412.912	3940.31
413.023	3783.31
413.134	3795.31
413.245	3854.31
413.355	3803.31
413.466	3846.31
413.577	3886.31
413.687	3963.31
413.798	3798.31
413.909	3926.31
414.019	3893.31
414.13	3880.31
414.24	3802.31
414.351	3982.31
414.462	4074.31
414.572	3918.31
414.683	3955.31
414.793	3928.31
414.904	4108.31
415.014	3958.31
415.125	3910.31
415.235	3895.31
415.346	3946.31
415.456	4042.31
415.567	3852.31
415.677	3926.31
415.788	3916.31
415.898	3876.31
416.009	3813.31
416.119	3995.31
416.23	3855.31
416.34	3802.31
416.45	3932.31
416.561	4298.31
416.671	3904.31
416.782	3916.31
416.892	3914.31
417.002	3922.31
417.113	3974.31
417.223	3956.31
417.333	3922.31
417.444	4015.31
417.554	4104.31
417.664	4033.31
417.775	3997.31
417.885	4156.31
417.995	3993.31
418.106	4315.31
418.216	4145.31
418.326	4256.31
418.436	4336.31
418.547	4317.31
418.657	4265.31
418.767	4406.31
418.877	4362.31
418.987	4422.31
419.098	4353.31
419.208	4446.31
419.318	4494.31
419.428	4547.31
419.538	4352.31
419.648	4542.31
419.759	4426.31
419.869	4487.31
419.979	4416.31
420.089	4469.31
420.199	4440.31
420.309	4495.31
420.419	4465.31
420.529	4459.31
420.639	4546.31
420.749	4622.31
420.859	4574.31
420.969	4592.31
421.079	4820.31
421.189	4541.31
421.299	4520.31
421.409	4626.31
421.519	4765.31
421.629	4736.31
421.739	4708.31
421.849	4691.31
421.959	4714.31
422.069	4830.31
422.179	4795.31
422.289	4908.31
422.399	4902.31
422.509	4958.31
422.619	6631.31
422.729	5118.31
422.838	5078.31
422.948	5085.31
423.058	4999.31
423.168	5036.31
423.278	5095.31
423.388	5096.31
423.498	5242.31
423.607	5353.31
423.717	5556.31
423.827	5492.31
423.937	5437.31
424.046	5451.31
424.156	5412.31
424.266	5458.31
424.376	5704.31
424.485	5591.31
424.595	5517.31
424.705	5631.31
424.815	5598.31
424.924	6165.31
425.034	5698.31
425.144	5643.31
425.253	5646.31
425.363	5848.31
425.473	5820.31
425.582	5712.31
425.692	5913.31
425.801	5867.31
425.911	5986.31
426.021	5921.31
426.13	6008.31
426.24	6087.31
426.349	6138.31
426.459	6222.31
426.568	6071.31
426.678	6221.31
426.787	6210.31
426.897	6084.31
427.006	6231.31
427.116	6317.31
427.225	6395.31
427.335	6343.31
427.444	6347.31
427.554	6255.31
427.663	6417.31
427.773	6410.31
427.882	6601.31
427.992	6476.31
428.101	6541.31
428.21	6573.31
428.32	6648.31
428.429	6579.31
428.539	6944.31
428.648	6776.31
428.757	6742.31
428.867	6870.31
428.976	6952.31
429.085	6896.31
429.195	6956.31
429.304	6925.31
429.413	7039.31
429.523	6994.31
429.632	7012.31
429.741	7026.31
429.85	6934.31
429.96	7161.31
430.069	7058.31
430.178	7142.31
430.287	7387.31
430.397	7261.31
430.506	7209.31
430.615	7246.31
430.724	7375.31
430.833	7264.31
430.943	7319.31
431.052	7465.31
431.161	7408.31
431.27	7503.31
431.379	7744.31
431.488	7831.31
431.597	7597.31
431.706	7818.31
431.816	7833.31
431.925	7759.31
432.034	7868.31
432.143	7840.31
432.252	7748.31
432.361	7747.31
432.47	7756.31
432.579	7676.31
432.688	7828.31
432.797	7890.31
432.906	7756.31
433.015	7837.31
433.124	8104.31
433.233	7905.31
433.342	7897.31
433.451	7908.31
433.56	7893.31
433.669	7941.31
433.778	7966.31
433.886	8089.31
433.995	8078.31
434.104	8400.31
434.213	8181.31
434.322	8212.31
434.431	8390.31
434.54	8612.31
434.649	8735.31
434.757	8678.31
434.866	8602.31
434.975	8590.31
435.084	8240.31
435.193	8216.31
435.301	8342.31
435.41	8234.31
435.519	8377.31
435.628	7846.31
435.737	7741.31
435.845	7630.31
435.954	7538.31
436.063	7462.31
436.171	7559.31
436.28	7550.31
436.389	7800.31
436.498	7399.31
436.606	7474.31
436.715	7661.31
436.823	7375.31
436.932	7140.31
437.041	7239.31
437.149	7229.31
437.258	7161.31
437.367	7074.31
437.475	7033.31
437.584	7153.31
437.692	7021.31
437.801	8295.31
437.91	7018.31
438.018	6917.31
438.127	6876.31
438.235	7022.31
438.344	6983.31
438.452	6918.31
438.561	6796.31
438.669	6928.31
438.778	6696.31
438.886	6733.31
438.995	6702.31
439.103	6887.31
439.212	6874.31
439.32	6840.31
439.428	6870.31
439.537	6865.31
439.645	7009.31
439.754	6940.31
439.862	6828.31
439.97	6871.31
440.079	7029.31
440.187	7031.31
440.295	7079.31
440.404	6929.31
440.512	7126.31
440.62	7000.31
440.729	7198.31
440.837	7353.31
440.945	7832.31
441.054	7401.31
441.162	7183.31
441.27	7527.31
441.378	7611.31
441.487	7580.31
441.595	8017.31
441.703	7700.31
441.811	7495.31
441.92	7659.31
442.028	7354.31
442.136	7529.31
442.244	7373.31
442.352	7407.31
442.461	7233.31
442.569	7228.31
442.677	7296.31
442.785	7384.31
442.893	7165.31
443.001	7351.31
443.109	7257.31
443.217	7364.31
443.325	7429.31
443.434	7954.31
443.542	7791.31
443.65	7571.31
443.758	7722.31
443.866	7632.31
443.974	8041.31
444.082	7951.31
444.19	7970.31
444.298	8100.31
444.406	8332.31
444.514	8431.31
444.622	8560.31
444.73	8441.31
444.838	8395.31
444.946	8398.31
445.054	8198.31
445.161	8170.31
445.269	7796.31
445.377	7858.31
445.485	7805.31
445.593	7810.31
445.701	7845.31
445.809	7756.31
445.917	7582.31
446.025	7544.31
446.132	7882.31
446.24	7687.31
446.348	7689.31
446.456	7572.31
446.564	7518.31
446.671	7435.31
446.779	7485.31
446.887	7594.31
446.995	7427.31
447.102	7574.31
447.21	7591.31
447.318	7445.31
447.426	7438.31
447.533	7753.31
447.641	8479.31
447.749	7471.31
447.856	7492.31
447.964	7377.31
448.072	7562.31
448.179	7486.31
448.287	7426.31
448.395	7469.31
448.502	7328.31
448.61	7566.31
448.718	7493.31
448.825	7463.31
448.933	7497.31
449.04	7489.31
449.148	7684.31
449.256	7669.31
449.363	7613.31
449.471	7615.31
449.578	7986.31
449.686	7781.31
449.793	7898.31
449.901	7852.31
450.008	7982.31
450.116	7977.31
450.223	7977.31
450.331	8217.31
450.438	8297.31
450.546	8263.31
450.653	8361.31
450.76	8431.31
450.868	8358.31
450.975	8669.31
451.083	8605.31
451.19	8617.31
451.297	8485.31
451.405	8630.31
451.512	8736.31
451.619	8746.31
451.727	8919.31
451.834	8544.31
451.941	8778.31
452.049	8848.31
452.156	8792.31
452.263	8928.31
452.371	9031.31
452.478	8917.31
452.585	9029.31
452.692	9044.31
452.8	9052.31
452.907	9290.31
453.014	9086.31
453.121	9162.31
453.229	9200.31
453.336	9245.31
453.443	9325.31
453.55	9324.31
453.657	9163.31
453.765	9497.31
453.872	9346.31
453.979	9536.31
454.086	9605.31
454.193	9705.31
454.3	9387.31
454.407	9601.31
454.514	9754.31
454.621	9628.31
454.729	9505.31
454.836	9789.31
454.943	9823.31
455.05	9713.31
455.157	9906.31
455.264	9738.31
455.371	9925.31
455.478	9920.31
455.585	11254.31
455.692	10117.31
455.799	10283.31
455.906	10081.31
456.013	10066.31
456.12	10122.31
456.227	10181.31
456.334	10431.31
456.44	10400.31
456.547	10440.31
456.654	10273.31
456.761	10489.31
456.868	10728.31
456.975	10594.31
457.082	10489.31
457.189	10579.31
457.296	10665.31
457.402	10665.31
457.509	10552.31
457.616	10922.31
457.723	11062.31
457.83	11052.31
457.936	11186.31
458.043	11595.31
458.15	11344.31
458.257	11561.31
458.363	11624.31
458.47	11865.31
458.577	11975.31
458.684	11929.31
458.79	12166.31
458.897	12433.31
459.004	12688.31
459.11	12712.31
459.217	12728.31
459.324	12804.31
459.43	13064.31
459.537	13302.31
459.644	13333.31
459.75	13376.31
459.857	13806.31
459.964	13625.31
460.07	13549.31
460.177	13873.31
460.283	14060.31
460.39	14325.31
460.496	14082.31
460.603	14144.31
460.71	14018.31
460.816	14005.31
460.923	14032.31
461.029	13981.31
461.136	14130.31
461.242	14064.31
461.349	13986.31
461.455	14374.31
461.562	14510.31
461.668	14515.31
461.774	14359.31
461.881	14515.31
461.987	14515.31
462.094	14515.31
462.2	14515.31
462.307	14515.31
462.413	14515.31
462.519	14515.31
462.626	14515.31
462.732	14515.31
462.838	14515.31
462.945	14515.31
463.051	14515.31
463.157	14515.31
463.264	14515.31
463.37	14515.31
463.476	14515.31
463.583	14515.31
463.689	14515.31
463.795	14515.31
463.901	14515.31
464.008	14515.31
464.114	14515.31
464.22	14515.31
464.326	14515.31
464.433	14515.31
464.539	14515.31
464.645	14461.31
464.751	14280.31
464.857	14045.31
464.963	13575.31
465.07	13361.31
465.176	12909.31
465.282	12793.31
465.388	12604.31
465.494	12180.31
465.6	11965.31
465.706	11670.31
465.812	11691.31
465.918	11462.31
466.024	11308.31
466.131	11189.31
466.237	11009.31
466.343	10857.31
466.449	10548.31
466.555	10553.31
466.661	10366.31
466.767	10351.31
466.873	10214.31
466.979	10221.31
467.085	10133.31
467.191	10279.31
467.296	10102.31
467.402	9983.31
467.508	10002.31
467.614	10066.31
467.72	9738.31
467.826	9675.31
467.932	9582.31
468.038	9465.31
468.144	9414.31
468.25	9373.31
468.355	9264.31
468.461	9273.31
468.567	9290.31
468.673	9245.31
468.779	9240.31
468.885	9143.31
468.99	9189.31
469.096	9147.31
469.202	9220.31
469.308	9242.31
469.413	9322.31
469.519	9330.31
469.625	9322.31
469.731	9274.31
469.836	9282.31
469.942	9408.31
470.048	9385.31
470.153	9330.31
470.259	9251.31
470.365	9452.31
470.47	9390.31
470.576	9218.31
470.682	9240.31
470.787	9105.31
470.893	8962.31
470.999	9018.31
471.104	8888.31
471.21	8750.31
471.315	8619.31
471.421	8560.31
471.527	8700.31
471.632	8533.31
471.738	8384.31
471.843	8380.31
471.949	8290.31
472.054	8314.31
472.16	8087.31
472.265	8133.31
472.371	8103.31
472.476	8006.31
472.582	8034.31
472.687	8011.31
472.793	7966.31
472.898	7840.31
473.003	7841.31
473.109	7669.31
473.214	7624.31
473.32	7742.31
473.425	7738.31
473.53	7819.31
473.636	7613.31
473.741	7671.31
473.847	7576.31
473.952	7686.31
474.057	7660.31
474.163	7711.31
474.268	7562.31
474.373	7728.31
474.478	7670.31
474.584	7524.31
474.689	7531.31
474.794	7613.31
474.9	7701.31
475.005	7531.31
475.11	7833.31
475.215	7610.31
475.321	7639.31
475.426	7832.31
475.531	7766.31
475.636	7683.31
475.741	7707.31
475.846	7807.31
475.952	7959.31
476.057	7735.31
476.162	7780.31
476.267	7798.31
476.372	8031.31
476.477	7822.31
476.582	7974.31
476.687	7859.31
476.793	7977.31
476.898	7968.31
477.003	7965.31
477.108	8083.31
477.213	8080.31
477.318	8205.31
477.423	8288.31
477.528	8398.31
477.633	8381.31
477.738	8431.31
477.843	8556.31
477.948	8523.31
478.053	8815.31
478.158	8735.31
478.263	8731.31
478.368	8844.31
478.473	8960.31
478.578	8751.31
478.682	8752.31
478.787	9185.31
478.892	9008.31
478.997	9117.31
479.102	8978.31
479.207	9116.31
479.312	9172.31
479.417	9051.31
479.521	9123.31
479.626	9225.31
479.731	9302.31
479.836	9398.31
479.941	9445.31
480.045	9479.31
480.15	9735.31
480.255	9658.31
480.36	9743.31
480.465	9815.31
480.569	9854.31
480.674	9681.31
480.779	9454.31
480.883	9468.31
480.988	9572.31
481.093	9510.31
481.197	9400.31
481.302	9406.31
481.407	9307.31
481.511	10970.31
481.616	9409.31
481.721	9418.31
481.825	9551.31
481.93	9344.31
482.035	9455.31
482.139	9525.31
482.244	9430.31
482.348	9544.31
482.453	9425.31
482.557	9595.31
482.662	9500.31
482.767	9609.31
482.871	9658.31
482.976	9664.31
483.08	9809.31
483.185	9962.31
483.289	9903.31
483.394	9921.31
483.498	9946.31
483.603	10117.31
483.707	10008.31
483.811	10153.31
483.916	10304.31
484.02	10176.31
484.125	10367.31
484.229	10430.31
484.333	10529.31
484.438	10434.31
484.542	10599.31
484.647	10669.31
484.751	10826.31
484.855	10852.31
484.96	10765.31
485.064	10936.31
485.168	11010.31
485.273	10970.31
485.377	11112.31
485.481	11300.31
485.585	11272.31
485.69	11324.31
485.794	11298.31
485.898	11377.31
486.002	11396.31
486.107	11547.31
486.211	11298.31
486.315	11572.31
486.419	11462.31
486.524	11571.31
486.628	11583.31
486.732	11386.31
486.836	11392.31
486.94	11613.31
487.044	11548.31
487.148	11464.31
487.253	11554.31
487.357	11613.31
487.461	11947.31
487.565	11722.31
487.669	11559.31
487.773	11597.31
487.877	11558.31
487.981	11730.31
488.085	11740.31
488.189	11550.31
488.293	11679.31
488.397	11981.31
488.501	11645.31
488.605	11611.31
488.709	11722.31
488.813	11714.31
488.917	11667.31
489.021	11542.31
489.125	11863.31
489.229	11792.31
489.333	11950.31
489.437	11727.31
489.541	11875.31
489.645	11887.31
489.749	11764.31
489.853	11913.31
489.956	11978.31
490.06	11811.31
490.164	11867.31
490.268	11903.31
490.372	11785.31
490.476	11888.31
490.579	11919.31
490.683	12528.31
490.787	11985.31
490.891	11736.31
490.995	11969.31
491.098	11977.31
491.202	11977.31
491.306	12052.31
491.41	11893.31
491.513	11837.31
491.617	12144.31
491.721	12102.31
491.824	12101.31
491.928	11983.31
492.032	12111.31
492.136	11913.31
492.239	11969.31
492.343	12105.31
492.446	12408.31
492.55	12044.31
492.654	12021.31
492.757	12025.31
492.861	12086.31
492.965	11991.31
493.068	12162.31
493.172	12096.31
493.275	11963.31
493.379	12085.31
493.482	12175.31
493.586	12257.31
493.689	12290.31
493.793	12110.31
493.896	12348.31
494	12334.31
494.103	12184.31
494.207	12434.31
494.31	12426.31
494.414	12169.31
494.517	12117.31
494.621	12025.31
494.724	12058.31
494.828	12058.31
494.931	11979.31
495.034	12051.31
495.138	12143.31
495.241	11925.31
495.345	12620.31
495.448	12072.31
495.551	12010.31
495.655	11982.31
495.758	11930.31
495.861	11818.31
495.965	11981.31
496.068	12021.31
496.171	12122.31
496.274	12050.31
496.378	12121.31
496.481	12184.31
496.584	12265.31
496.687	12312.31
496.791	12367.31
496.894	12516.31
496.997	12486.31
497.1	12478.31
497.204	12565.31
497.307	12655.31
497.41	12798.31
497.513	12975.31
497.616	13014.31
497.719	13009.31
497.823	13284.31
497.926	13523.31
498.029	13639.31
498.132	13752.31
498.235	14246.31
498.338	14424.31
498.441	14515.31
498.544	14515.31
498.647	14515.31
498.75	14515.31
498.853	14515.31
498.956	14515.31
499.059	14515.31
499.163	14515.31
499.266	14515.31
499.369	14515.31
499.471	14515.31
499.574	14515.31
499.677	14515.31
499.78	14515.31
499.883	14515.31
499.986	14515.31
500.089	14515.31
500.192	14515.31
500.295	14515.31
500.398	14515.31
500.501	14515.31
500.604	14515.31
500.707	14515.31
500.809	14515.31
500.912	14515.31
501.015	14515.31
501.118	14515.31
501.221	14515.31
501.324	14515.31
501.426	14515.31
501.529	14515.31
501.632	14515.31
501.735	14515.31
501.837	14515.31
501.94	14515.31
502.043	14238.31
502.146	14044.31
502.248	13746.31
502.351	13441.31
502.454	12998.31
502.557	12975.31
502.659	12588.31
502.762	12399.31
502.865	12066.31
502.967	12057.31
503.07	11552.31
503.173	11684.31
503.275	11585.31
503.378	11399.31
503.48	11302.31
503.583	11113.31
503.686	11175.31
503.788	11213.31
503.891	10906.31
503.993	11071.31
504.096	10809.31
504.198	10968.31
504.301	10864.31
504.403	10727.31
504.506	10594.31
504.608	10517.31
504.711	10306.31
504.813	10208.31
504.916	9914.31
505.018	9805.31
505.121	9608.31
505.223	9457.31
505.326	9397.31
505.428	9383.31
505.531	9083.31
505.633	9213.31
505.735	8902.31
505.838	8932.31
505.94	8767.31
506.042	8730.31
506.145	8672.31
506.247	8624.31
506.35	8609.31
506.452	8485.31
506.554	8613.31
506.656	8605.31
506.759	8360.31
506.861	8366.31
506.963	8341.31
507.066	8318.31
507.168	8336.31
507.27	8328.31
507.372	8055.31
507.475	7984.31
507.577	8150.31
507.679	8106.31
507.781	7877.31
507.883	7865.31
507.986	7830.31
508.088	7822.31
508.19	7848.31
508.292	7985.31
508.394	7822.31
508.496	7801.31
508.598	7851.31
508.701	7599.31
508.803	7716.31
508.905	7667.31
509.007	7741.31
509.109	7712.31
509.211	7686.31
509.313	7603.31
509.415	7645.31
509.517	7510.31
509.619	7601.31
509.721	7577.31
509.823	7615.31
509.925	7734.31
510.027	7506.31
510.129	7363.31
510.231	7625.31
510.333	7439.31
510.435	7480.31
510.537	7578.31
510.639	7663.31
510.741	7501.31
510.843	7506.31
510.945	7506.31
511.047	7534.31
511.148	7417.31
511.25	7606.31
511.352	7394.31
511.454	7275.31
511.556	7621.31
511.658	7383.31
511.76	7605.31
511.861	7702.31
511.963	7325.31
512.065	7301.31
512.167	7371.31
512.268	7772.31
512.37	7493.31
512.472	7488.31
512.574	7610.31
512.676	7604.31
512.777	7486.31
512.879	7542.31
512.981	7568.31
513.082	7625.31
513.184	7623.31
513.286	8138.31
513.387	7677.31
513.489	7817.31
513.591	7797.31
513.692	7794.31
513.794	7751.31
513.896	7746.31
513.997	7629.31
514.099	7746.31
514.2	7954.31
514.302	7792.31
514.404	7724.31
514.505	7847.31
514.607	7954.31
514.708	7889.31
514.81	7905.31
514.911	8062.31
515.013	8085.31
515.114	8132.31
515.216	8202.31
515.317	8247.31
515.419	8168.31
515.52	8466.31
515.622	8287.31
515.723	8469.31
515.825	8679.31
515.926	8662.31
516.027	8712.31
516.129	8785.31
516.23	9066.31
516.332	9040.31
516.433	9152.31
516.534	9323.31
516.636	9341.31
516.737	9418.31
516.838	10643.31
516.94	9920.31
517.041	9871.31
517.142	10265.31
517.244	10341.31
517.345	10252.31
517.446	10351.31
517.547	10448.31
517.649	10459.31
517.75	10651.31
517.851	10402.31
517.952	10594.31
518.054	10304.31
518.155	10379.31
518.256	10057.31
518.357	10145.31
518.458	9950.31
518.56	9770.31
518.661	9851.31
518.762	9580.31
518.863	9626.31
518.964	9465.31
519.065	9369.31
519.166	9329.31
519.268	9171.31
519.369	9388.31
519.47	9079.31
519.571	9044.31
519.672	8906.31
519.773	8938.31
519.874	8861.31
519.975	8905.31
520.076	8811.31
520.177	8721.31
520.278	8679.31
520.379	8816.31
520.48	8699.31
520.581	8588.31
520.682	8546.31
520.783	8579.31
520.884	8753.31
520.985	8643.31
521.086	8734.31
521.187	8659.31
521.288	8549.31
521.389	8646.31
521.489	8562.31
521.59	8496.31
521.691	8442.31
521.792	8539.31
521.893	8495.31
521.994	8500.31
522.095	8511.31
522.195	8462.31
522.296	8485.31
522.397	8544.31
522.498	8471.31
522.599	8348.31
522.699	8501.31
522.8	8371.31
522.901	8568.31
523.002	8541.31
523.102	8681.31
523.203	8297.31
523.304	8654.31
523.405	8445.31
523.505	8501.31
523.606	8510.31
523.707	8537.31
523.807	8411.31
523.908	8407.31
524.009	8536.31
524.109	8409.31
524.21	8544.31
524.31	8553.31
524.411	8571.31
524.512	8518.31
524.612	8510.31
524.713	8712.31
524.813	8532.31
524.914	8766.31
525.014	13276.31
525.115	8724.31
525.216	8406.31
525.316	8535.31
525.417	8541.31
525.517	8359.31
525.618	8579.31
525.718	8505.31
525.819	8448.31
525.919	8536.31
526.019	8445.31
526.12	8472.31
526.22	8320.31
526.321	8528.31
526.421	8377.31
526.522	8399.31
526.622	8466.31
526.722	8417.31
526.823	8612.31
526.923	8599.31
527.023	8454.31
527.124	8497.31
527.224	8551.31
527.324	8318.31
527.425	8482.31
527.525	8337.31
527.625	8409.31
527.726	8357.31
527.826	8573.31
527.926	8506.31
528.026	8432.31
528.127	8318.31
528.227	8349.31
528.327	8456.31
528.427	8216.31
528.528	8420.31
528.628	8536.31
528.728	8413.31
528.828	8378.31
528.928	8433.31
529.029	8374.31
529.129	8309.31
529.229	8466.31
529.329	8263.31
529.429	8364.31
529.529	8401.31
529.629	8419.31
529.729	8226.31
529.829	8299.31
529.93	8229.31
530.03	8345.31
530.13	8274.31
530.23	8213.31
530.33	8109.31
530.43	8164.31
530.53	8283.31
530.63	8206.31
530.73	8122.31
530.83	8009.31
530.93	8014.31
531.03	8038.31
531.13	8141.31
531.23	8139.31
531.33	8100.31
531.429	8198.31
531.529	8085.31
531.629	7968.31
531.729	7872.31
531.829	8007.31
531.929	7989.31
532.029	7999.31
532.129	7934.31
532.229	7994.31
532.328	7909.31
532.428	7937.31
532.528	7831.31
532.628	7650.31
532.728	7882.31
532.827	7730.31
532.927	7815.31
533.027	7729.31
533.127	7832.31
533.227	7709.31
533.326	7621.31
533.426	7610.31
533.526	7756.31
533.625	7846.31
533.725	7729.31
533.825	7673.31
533.924	7554.31
534.024	7413.31
534.124	7402.31
534.223	7394.31
534.323	7802.31
534.423	7456.31
534.522	7542.31
534.622	7266.31
534.722	7453.31
534.821	7417.31
534.921	7167.31
535.02	7180.31
535.12	7171.31
535.219	7272.31
535.319	7258.31
535.419	7250.31
535.518	7096.31
535.618	6999.31
535.717	7180.31
535.817	6951.31
