Data from sinsal_HRC06701__33__94.txt Node

Date: Thu Apr 18 01:41:36 CDT 2024
User: Estudiantes 2
Spectrometer: HR+C0670
Trigger mode: 4
Integration Time (sec): 1.000000E0
Scans to average: 1
Electric dark correction enabled: true
Nonlinearity correction enabled: false
Boxcar width: 0
XAxis mode: Wavelengths
Number of Pixels in Spectrum: 2048
>>>>>Begin Spectral Data<<<<<
407.81	-68.62
407.921	-68.62
408.032	-68.62
408.143	-112.62
408.254	-131.62
408.365	45.38
408.476	167.38
408.587	4.38
408.699	27.38
408.81	-2.62
408.921	-48.62
409.032	-11.62
409.143	53.38
409.254	-5.62
409.365	73.38
409.476	-9.62
409.587	-32.62
409.698	52.38
409.809	113.38
409.92	-35.62
410.031	-12.62
410.142	95.38
410.253	3.38
410.364	9.38
410.475	470.38
410.585	2246.38
410.696	2403.38
410.807	2310.38
410.918	2345.38
411.029	2365.38
411.14	2386.38
411.251	2434.38
411.362	2403.38
411.472	2504.38
411.583	2486.38
411.694	2492.38
411.805	2390.38
411.916	2490.38
412.026	2504.38
412.137	2393.38
412.248	2433.38
412.359	2456.38
412.47	2397.38
412.58	2355.38
412.691	2477.38
412.802	2352.38
412.912	2381.38
413.023	2477.38
413.134	2366.38
413.245	2398.38
413.355	2431.38
413.466	2371.38
413.577	2376.38
413.687	2489.38
413.798	2264.38
413.909	2475.38
414.019	2410.38
414.13	2446.38
414.24	2356.38
414.351	2458.38
414.462	2625.38
414.572	2478.38
414.683	2470.38
414.793	2510.38
414.904	2638.38
415.014	2354.38
415.125	2430.38
415.235	2509.38
415.346	2511.38
415.456	2473.38
415.567	2422.38
415.677	2388.38
415.788	2393.38
415.898	2364.38
416.009	2398.38
416.119	2391.38
416.23	2416.38
416.34	2364.38
416.45	2461.38
416.561	2896.38
416.671	2500.38
416.782	2315.38
416.892	2463.38
417.002	2434.38
417.113	2451.38
417.223	2480.38
417.333	2473.38
417.444	2446.38
417.554	2484.38
417.664	2617.38
417.775	2448.38
417.885	2532.38
417.995	2566.38
418.106	2668.38
418.216	2611.38
418.326	2704.38
418.436	2633.38
418.547	2651.38
418.657	2638.38
418.767	2721.38
418.877	2654.38
418.987	2678.38
419.098	2820.38
419.208	2687.38
419.318	2789.38
419.428	2856.38
419.538	2715.38
419.648	2775.38
419.759	2748.38
419.869	2767.38
419.979	2719.38
420.089	2704.38
420.199	2701.38
420.309	2791.38
420.419	2738.38
420.529	2766.38
420.639	2913.38
420.749	2791.38
420.859	2862.38
420.969	2845.38
421.079	2950.38
421.189	2892.38
421.299	2840.38
421.409	2783.38
421.519	2876.38
421.629	2969.38
421.739	2901.38
421.849	2829.38
421.959	2903.38
422.069	2916.38
422.179	2859.38
422.289	2930.38
422.399	2960.38
422.509	3069.38
422.619	5715.38
422.729	3275.38
422.838	3041.38
422.948	3140.38
423.058	3105.38
423.168	3103.38
423.278	3117.38
423.388	3245.38
423.498	3235.38
423.607	3167.38
423.717	3567.38
423.827	3402.38
423.937	3290.38
424.046	3355.38
424.156	3380.38
424.266	3282.38
424.376	3591.38
424.485	3519.38
424.595	3404.38
424.705	3364.38
424.815	3396.38
424.924	3723.38
425.034	3507.38
425.144	3444.38
425.253	3526.38
425.363	3614.38
425.473	3671.38
425.582	3535.38
425.692	3599.38
425.801	3526.38
425.911	3747.38
426.021	3593.38
426.13	3813.38
426.24	3872.38
426.349	3759.38
426.459	3725.38
426.568	3738.38
426.678	3758.38
426.787	3753.38
426.897	3798.38
427.006	3807.38
427.116	3826.38
427.225	3799.38
427.335	3903.38
427.444	3899.38
427.554	3877.38
427.663	3851.38
427.773	3872.38
427.882	4022.38
427.992	3891.38
428.101	3981.38
428.21	3943.38
428.32	4138.38
428.429	3941.38
428.539	4339.38
428.648	4100.38
428.757	4032.38
428.867	4158.38
428.976	4356.38
429.085	4245.38
429.195	4146.38
429.304	4176.38
429.413	4335.38
429.523	4260.38
429.632	4292.38
429.741	4309.38
429.85	4235.38
429.96	4359.38
430.069	4458.38
430.178	4325.38
430.287	4552.38
430.397	4469.38
430.506	4382.38
430.615	4445.38
430.724	4551.38
430.833	4530.38
430.943	4468.38
431.052	4490.38
431.161	4613.38
431.27	4511.38
431.379	4553.38
431.488	4949.38
431.597	4672.38
431.706	4796.38
431.816	4744.38
431.925	4722.38
432.034	4736.38
432.143	4878.38
432.252	4741.38
432.361	4718.38
432.47	4768.38
432.579	4756.38
432.688	4675.38
432.797	4661.38
432.906	4612.38
433.015	4781.38
433.124	5061.38
433.233	4832.38
433.342	4746.38
433.451	4736.38
433.56	4795.38
433.669	4796.38
433.778	4734.38
433.886	4914.38
433.995	4859.38
434.104	5003.38
434.213	4931.38
434.322	4975.38
434.431	5053.38
434.54	5186.38
434.649	5314.38
434.757	5193.38
434.866	5188.38
434.975	5192.38
435.084	5092.38
435.193	4997.38
435.301	5077.38
435.41	5174.38
435.519	5237.38
435.628	4691.38
435.737	4672.38
435.845	4604.38
435.954	4553.38
436.063	4512.38
436.171	4535.38
436.28	4555.38
436.389	4746.38
436.498	4442.38
436.606	4451.38
436.715	4647.38
436.823	4500.38
436.932	4275.38
437.041	4330.38
437.149	4478.38
437.258	4308.38
437.367	4147.38
437.475	4228.38
437.584	4362.38
437.692	4179.38
437.801	5464.38
437.91	4241.38
438.018	4167.38
438.127	4098.38
438.235	4238.38
438.344	4256.38
438.452	4132.38
438.561	4149.38
438.669	4058.38
438.778	4001.38
438.886	4127.38
438.995	4023.38
439.103	4057.38
439.212	4108.38
439.32	4088.38
439.428	3978.38
439.537	4103.38
439.645	4225.38
439.754	4103.38
439.862	4045.38
439.97	4202.38
440.079	4129.38
440.187	4054.38
440.295	4304.38
440.404	4213.38
440.512	4173.38
440.62	4294.38
440.729	4250.38
440.837	4293.38
440.945	4875.38
441.054	4342.38
441.162	4411.38
441.27	4526.38
441.378	4551.38
441.487	4503.38
441.595	4950.38
441.703	4675.38
441.811	4413.38
441.92	4471.38
442.028	4387.38
442.136	4413.38
442.244	4365.38
442.352	4385.38
442.461	4241.38
442.569	4240.38
442.677	4252.38
442.785	4434.38
442.893	4339.38
443.001	4331.38
443.109	4287.38
443.217	4317.38
443.325	4294.38
443.434	4821.38
443.542	4619.38
443.65	4467.38
443.758	4614.38
443.866	4493.38
443.974	4786.38
444.082	4703.38
444.19	4750.38
444.298	4729.38
444.406	4896.38
444.514	4968.38
444.622	4968.38
444.73	4940.38
444.838	5002.38
444.946	4877.38
445.054	4723.38
445.161	4740.38
445.269	4520.38
445.377	4629.38
445.485	4623.38
445.593	4645.38
445.701	4722.38
445.809	4581.38
445.917	4609.38
446.025	4336.38
446.132	4527.38
446.24	4626.38
446.348	4553.38
446.456	4349.38
446.564	4448.38
446.671	4462.38
446.779	4423.38
446.887	4430.38
446.995	4395.38
447.102	4426.38
447.21	4443.38
447.318	4471.38
447.426	4326.38
447.533	4585.38
447.641	5468.38
447.749	4435.38
447.856	4353.38
447.964	4470.38
448.072	4454.38
448.179	4335.38
448.287	4459.38
448.395	4481.38
448.502	4299.38
448.61	4471.38
448.718	4486.38
448.825	4497.38
448.933	4449.38
449.04	4520.38
449.148	4524.38
449.256	4556.38
449.363	4532.38
449.471	4604.38
449.578	4720.38
449.686	4609.38
449.793	4714.38
449.901	4606.38
450.008	4739.38
450.116	4797.38
450.223	4703.38
450.331	4849.38
450.438	4832.38
450.546	4884.38
450.653	5031.38
450.76	5054.38
450.868	4950.38
450.975	5205.38
451.083	5067.38
451.19	5092.38
451.297	5093.38
451.405	5163.38
451.512	5024.38
451.619	5273.38
451.727	5256.38
451.834	5189.38
451.941	5165.38
452.049	5191.38
452.156	5285.38
452.263	5310.38
452.371	5290.38
452.478	5295.38
452.585	5396.38
452.692	5308.38
452.8	5405.38
452.907	5430.38
453.014	5413.38
453.121	5478.38
453.229	5490.38
453.336	5363.38
453.443	5539.38
453.55	5512.38
453.657	5452.38
453.765	5570.38
453.872	5498.38
453.979	5467.38
454.086	5623.38
454.193	5654.38
454.3	5548.38
454.407	5730.38
454.514	5672.38
454.621	5638.38
454.729	5638.38
454.836	5718.38
454.943	5795.38
455.05	5872.38
455.157	5919.38
455.264	5812.38
455.371	5844.38
455.478	5763.38
455.585	6981.38
455.692	5925.38
455.799	6018.38
455.906	5891.38
456.013	6009.38
456.12	5968.38
456.227	6050.38
456.334	6123.38
456.44	6220.38
456.547	6196.38
456.654	6103.38
456.761	6068.38
456.868	6274.38
456.975	6183.38
457.082	6104.38
457.189	6094.38
457.296	6227.38
457.402	6322.38
457.509	6247.38
457.616	6407.38
457.723	6602.38
457.83	6343.38
457.936	6443.38
458.043	6922.38
458.15	6597.38
458.257	6664.38
458.363	6812.38
458.47	6835.38
458.577	7008.38
458.684	6902.38
458.79	7163.38
458.897	7206.38
459.004	7365.38
459.11	7259.38
459.217	7276.38
459.324	7560.38
459.43	7736.38
459.537	7815.38
459.644	7679.38
459.75	7852.38
459.857	8110.38
459.964	8020.38
460.07	8030.38
460.177	8150.38
460.283	8092.38
460.39	8355.38
460.496	8158.38
460.603	8204.38
460.71	8132.38
460.816	8146.38
460.923	7988.38
461.029	8076.38
461.136	8212.38
461.242	8045.38
461.349	8150.38
461.455	8221.38
461.562	8426.38
461.668	8381.38
461.774	8229.38
461.881	8329.38
461.987	8318.38
462.094	8552.38
462.2	8593.38
462.307	8634.38
462.413	8525.38
462.519	8868.38
462.626	9318.38
462.732	9149.38
462.838	9482.38
462.945	9675.38
463.051	9505.38
463.157	9572.38
463.264	9450.38
463.37	9237.38
463.476	9075.38
463.583	9099.38
463.689	8916.38
463.795	8769.38
463.901	8972.38
464.008	8933.38
464.114	8836.38
464.22	8784.38
464.326	8805.38
464.433	8554.38
464.539	8529.38
464.645	8344.38
464.751	8389.38
464.857	8149.38
464.963	7829.38
465.07	7625.38
465.176	7486.38
465.282	7304.38
465.388	7287.38
465.494	6930.38
465.6	6961.38
465.706	6579.38
465.812	6660.38
465.918	6661.38
466.024	6524.38
466.131	6363.38
466.237	6254.38
466.343	6229.38
466.449	6086.38
466.555	6012.38
466.661	5904.38
466.767	5957.38
466.873	5875.38
466.979	6017.38
467.085	5751.38
467.191	5888.38
467.296	5884.38
467.402	5805.38
467.508	5674.38
467.614	5758.38
467.72	5550.38
467.826	5573.38
467.932	5515.38
468.038	5456.38
468.144	5441.38
468.25	5363.38
468.355	5365.38
468.461	5379.38
468.567	5307.38
468.673	5244.38
468.779	5302.38
468.885	5186.38
468.99	5195.38
469.096	5262.38
469.202	5357.38
469.308	5301.38
469.413	5395.38
469.519	5290.38
469.625	5238.38
469.731	5413.38
469.836	5340.38
469.942	5444.38
470.048	5464.38
470.153	5304.38
470.259	5342.38
470.365	5519.38
470.47	5403.38
470.576	5347.38
470.682	5255.38
470.787	5263.38
470.893	5103.38
470.999	5281.38
471.104	5139.38
471.21	4951.38
471.315	4926.38
471.421	4863.38
471.527	5150.38
471.632	4967.38
471.738	4849.38
471.843	4748.38
471.949	4780.38
472.054	4779.38
472.16	4682.38
472.265	4668.38
472.371	4644.38
472.476	4714.38
472.582	4718.38
472.687	4561.38
472.793	4603.38
472.898	4605.38
473.003	4449.38
473.109	4532.38
473.214	4507.38
473.32	4427.38
473.425	4521.38
473.53	4454.38
473.636	4415.38
473.741	4411.38
473.847	4385.38
473.952	4386.38
474.057	4421.38
474.163	4534.38
474.268	4327.38
474.373	4392.38
474.478	4344.38
474.584	4356.38
474.689	4453.38
474.794	4424.38
474.9	4623.38
475.005	4296.38
475.11	4524.38
475.215	4422.38
475.321	4245.38
475.426	4576.38
475.531	4620.38
475.636	4324.38
475.741	4447.38
475.846	4589.38
475.952	4606.38
476.057	4432.38
476.162	4563.38
476.267	4587.38
476.372	4705.38
476.477	4498.38
476.582	4573.38
476.687	4565.38
476.793	4586.38
476.898	4605.38
477.003	4632.38
477.108	4595.38
477.213	4641.38
477.318	4670.38
477.423	4723.38
477.528	4811.38
477.633	4854.38
477.738	4879.38
477.843	4804.38
477.948	4912.38
478.053	4974.38
478.158	4952.38
478.263	5065.38
478.368	5019.38
478.473	5131.38
478.578	5129.38
478.682	4964.38
478.787	5223.38
478.892	5140.38
478.997	5222.38
479.102	5149.38
479.207	5170.38
479.312	5445.38
479.417	5210.38
479.521	5235.38
479.626	5417.38
479.731	5249.38
479.836	5359.38
479.941	5514.38
480.045	5572.38
480.15	5487.38
480.255	5602.38
480.36	5486.38
480.465	5594.38
480.569	5779.38
480.674	5503.38
480.779	5357.38
480.883	5516.38
480.988	5524.38
481.093	5479.38
481.197	5405.38
481.302	5462.38
481.407	5466.38
481.511	6896.38
481.616	5509.38
481.721	5424.38
481.825	5524.38
481.93	5384.38
482.035	5447.38
482.139	5530.38
482.244	5371.38
482.348	5541.38
482.453	5490.38
482.557	5529.38
482.662	5622.38
482.767	5509.38
482.871	5615.38
482.976	5604.38
483.08	5638.38
483.185	5822.38
483.289	5676.38
483.394	5805.38
483.498	5824.38
483.603	5764.38
483.707	5910.38
483.811	5840.38
483.916	5975.38
484.02	5967.38
484.125	6004.38
484.229	6048.38
484.333	6196.38
484.438	6061.38
484.542	6158.38
484.647	6197.38
484.751	6202.38
484.855	6329.38
484.96	6180.38
485.064	6307.38
485.168	6271.38
485.273	6395.38
485.377	6493.38
485.481	6627.38
485.585	6529.38
485.69	6551.38
485.794	6551.38
485.898	6593.38
486.002	6563.38
486.107	6675.38
486.211	6471.38
486.315	6640.38
486.419	6696.38
486.524	6686.38
486.628	6616.38
486.732	6656.38
486.836	6712.38
486.94	6821.38
487.044	6646.38
487.148	6671.38
487.253	6696.38
487.357	6811.38
487.461	6859.38
487.565	6762.38
487.669	6780.38
487.773	6639.38
487.877	6821.38
487.981	6921.38
488.085	6715.38
488.189	6750.38
488.293	6824.38
488.397	7161.38
488.501	6789.38
488.605	6685.38
488.709	6820.38
488.813	6717.38
488.917	6681.38
489.021	6826.38
489.125	6978.38
489.229	6781.38
489.333	6960.38
489.437	6827.38
489.541	6805.38
489.645	6772.38
489.749	7007.38
489.853	6905.38
489.956	6890.38
490.06	7007.38
490.164	6878.38
490.268	6843.38
490.372	6977.38
490.476	6924.38
490.579	6896.38
490.683	7380.38
490.787	7039.38
490.891	6765.38
490.995	6966.38
491.098	6942.38
491.202	6894.38
491.306	6983.38
491.41	7014.38
491.513	6883.38
491.617	6807.38
491.721	7050.38
491.824	6947.38
491.928	6848.38
492.032	7221.38
492.136	6920.38
492.239	6883.38
492.343	6952.38
492.446	7344.38
492.55	6981.38
492.654	6862.38
492.757	6935.38
492.861	6980.38
492.965	6884.38
493.068	6930.38
493.172	7036.38
493.275	6928.38
493.379	6938.38
493.482	6904.38
493.586	7008.38
493.689	7047.38
493.793	7092.38
493.896	7052.38
494	6991.38
494.103	7041.38
494.207	7199.38
494.31	7372.38
494.414	7052.38
494.517	6959.38
494.621	6825.38
494.724	6981.38
494.828	6872.38
494.931	6831.38
495.034	6796.38
495.138	7000.38
495.241	6769.38
495.345	7362.38
495.448	7022.38
495.551	6848.38
495.655	6792.38
495.758	6877.38
495.861	6809.38
495.965	6874.38
496.068	7005.38
496.171	6908.38
496.274	6868.38
496.378	6785.38
496.481	6979.38
496.584	6832.38
496.687	7028.38
496.791	6998.38
496.894	6908.38
496.997	7039.38
497.1	7090.38
497.204	7165.38
497.307	7086.38
497.41	7318.38
497.513	7451.38
497.616	7436.38
497.719	7365.38
497.823	7411.38
497.926	7573.38
498.029	7512.38
498.132	7727.38
498.235	7892.38
498.338	8097.38
498.441	8259.38
498.544	8171.38
498.647	8515.38
498.75	8828.38
498.853	8903.38
498.956	9065.38
499.059	9473.38
499.163	9563.38
499.266	9817.38
499.369	10195.38
499.471	10485.38
499.574	10836.38
499.677	11147.38
499.78	11578.38
499.883	11930.38
499.986	12472.38
500.089	12850.38
500.192	12926.38
500.295	13011.38
500.398	13010.38
500.501	12904.38
500.604	12524.38
500.707	12252.38
500.809	12014.38
500.912	11637.38
501.015	11171.38
501.118	10639.38
501.221	10271.38
501.324	9830.38
501.426	9565.38
501.529	9177.38
501.632	8781.38
501.735	8630.38
501.837	8445.38
501.94	8019.38
502.043	8043.38
502.146	7819.38
502.248	7654.38
502.351	7462.38
502.454	7433.38
502.557	7140.38
502.659	7147.38
502.762	6829.38
502.865	6752.38
502.967	6750.38
503.07	6545.38
503.173	6559.38
503.275	6534.38
503.378	6360.38
503.48	6260.38
503.583	6232.38
503.686	6199.38
503.788	6417.38
503.891	6195.38
503.993	6298.38
504.096	6141.38
504.198	6177.38
504.301	6142.38
504.403	6216.38
504.506	6066.38
504.608	5955.38
504.711	5864.38
504.813	5912.38
504.916	5640.38
505.018	5563.38
505.121	5460.38
505.223	5401.38
505.326	5319.38
505.428	5454.38
505.531	5231.38
505.633	5189.38
505.735	5130.38
505.838	5070.38
505.94	4970.38
506.042	4931.38
506.145	4881.38
506.247	5018.38
506.35	4752.38
506.452	4939.38
506.554	4917.38
506.656	4898.38
506.759	4791.38
506.861	4866.38
506.963	4685.38
507.066	4858.38
507.168	4825.38
507.27	4711.38
507.372	4662.38
507.475	4728.38
507.577	4655.38
507.679	4679.38
507.781	4531.38
507.883	4564.38
507.986	4496.38
508.088	4654.38
508.19	4545.38
508.292	4615.38
508.394	4489.38
508.496	4415.38
508.598	4499.38
508.701	4480.38
508.803	4464.38
508.905	4498.38
509.007	4454.38
509.109	4511.38
509.211	4522.38
509.313	4454.38
509.415	4420.38
509.517	4412.38
509.619	4387.38
509.721	4428.38
509.823	4372.38
509.925	4524.38
510.027	4421.38
510.129	4304.38
510.231	4379.38
510.333	4328.38
510.435	4355.38
510.537	4304.38
510.639	4463.38
510.741	4325.38
510.843	4304.38
510.945	4321.38
511.047	4319.38
511.148	4354.38
511.25	4282.38
511.352	4381.38
511.454	4310.38
511.556	4448.38
511.658	4279.38
511.76	4488.38
511.861	4466.38
511.963	4306.38
512.065	4362.38
512.167	4253.38
512.268	4453.38
512.37	4524.38
512.472	4329.38
512.574	4350.38
512.676	4444.38
512.777	4257.38
512.879	4280.38
512.981	4397.38
513.082	4359.38
513.184	4390.38
513.286	4882.38
513.387	4443.38
513.489	4563.38
513.591	4509.38
513.692	4568.38
513.794	4433.38
513.896	4383.38
513.997	4330.38
514.099	4459.38
514.2	4477.38
514.302	4511.38
514.404	4530.38
514.505	4514.38
514.607	4633.38
514.708	4654.38
514.81	4681.38
514.911	4703.38
515.013	4773.38
515.114	4752.38
515.216	4661.38
515.317	4828.38
515.419	4606.38
515.52	4878.38
515.622	4868.38
515.723	4815.38
515.825	5042.38
515.926	4982.38
516.027	5007.38
516.129	4981.38
516.23	5129.38
516.332	5248.38
516.433	5201.38
516.534	5308.38
516.636	5388.38
516.737	5366.38
516.838	6408.38
516.94	5672.38
517.041	5611.38
517.142	5827.38
517.244	5985.38
517.345	5964.38
517.446	5906.38
517.547	6003.38
517.649	5963.38
517.75	6028.38
517.851	5967.38
517.952	6157.38
518.054	5954.38
518.155	6044.38
518.256	5824.38
518.357	5902.38
518.458	5682.38
518.56	5682.38
518.661	5560.38
518.762	5540.38
518.863	5618.38
518.964	5621.38
519.065	5447.38
519.166	5301.38
519.268	5330.38
519.369	5494.38
519.47	5222.38
519.571	5297.38
519.672	5205.38
519.773	5166.38
519.874	5232.38
519.975	5220.38
520.076	5107.38
520.177	5184.38
520.278	5235.38
520.379	5122.38
520.48	5136.38
520.581	5130.38
520.682	4947.38
520.783	5006.38
520.884	5131.38
520.985	5003.38
521.086	4955.38
521.187	5023.38
521.288	4874.38
521.389	4971.38
521.489	4962.38
521.59	4886.38
521.691	5014.38
521.792	4948.38
521.893	5117.38
521.994	5020.38
522.095	5033.38
522.195	5125.38
522.296	5083.38
522.397	5067.38
522.498	5048.38
522.599	4850.38
522.699	4834.38
522.8	4971.38
522.901	5114.38
523.002	4932.38
523.102	5173.38
523.203	5008.38
523.304	5101.38
523.405	5006.38
523.505	5092.38
523.606	4992.38
523.707	5064.38
523.807	5046.38
523.908	4984.38
524.009	5021.38
524.109	5005.38
524.21	4938.38
524.31	5037.38
524.411	5185.38
524.512	5170.38
524.612	5079.38
524.713	5091.38
524.813	5068.38
524.914	5237.38
525.014	9709.38
525.115	5428.38
525.216	4962.38
525.316	4998.38
525.417	5037.38
525.517	4949.38
525.618	4952.38
525.718	4932.38
525.819	4947.38
525.919	5006.38
526.019	4881.38
526.12	5092.38
526.22	4947.38
526.321	4917.38
526.421	4928.38
526.522	4884.38
526.622	4956.38
526.722	4974.38
526.823	4950.38
526.923	5054.38
527.023	5035.38
527.124	4899.38
527.224	4914.38
527.324	4948.38
527.425	5060.38
527.525	4878.38
527.625	4914.38
527.726	4947.38
527.826	4979.38
527.926	4975.38
528.026	4982.38
528.127	4814.38
528.227	4938.38
528.327	5071.38
528.427	4889.38
528.528	4975.38
528.628	5024.38
528.728	4966.38
528.828	5068.38
528.928	4987.38
529.029	4949.38
529.129	4928.38
529.229	4972.38
529.329	4952.38
529.429	4997.38
529.529	5011.38
529.629	4918.38
529.729	4836.38
529.829	4989.38
529.93	4834.38
530.03	4862.38
530.13	4803.38
530.23	4803.38
530.33	4883.38
530.43	4789.38
530.53	4868.38
530.63	4839.38
530.73	4726.38
530.83	4583.38
530.93	4781.38
531.03	4658.38
531.13	4821.38
531.23	4619.38
531.33	4743.38
531.429	4708.38
531.529	4761.38
531.629	4759.38
531.729	4680.38
531.829	4605.38
531.929	4682.38
532.029	4668.38
532.129	4669.38
532.229	4720.38
532.328	4651.38
532.428	4637.38
532.528	4508.38
532.628	4539.38
532.728	4623.38
532.827	4472.38
532.927	4608.38
533.027	4569.38
533.127	4607.38
533.227	4679.38
533.326	4556.38
533.426	4458.38
533.526	4617.38
533.625	4618.38
533.725	4800.38
533.825	4605.38
533.924	4436.38
534.024	4288.38
534.124	4367.38
534.223	4404.38
534.323	4697.38
534.423	4348.38
534.522	4364.38
534.622	4372.38
534.722	4340.38
534.821	4479.38
534.921	4230.38
535.02	4160.38
535.12	4334.38
535.219	4369.38
535.319	4264.38
535.419	4258.38
535.518	4221.38
535.618	4202.38
535.717	4190.38
535.817	4119.38
535.916	4046.38
536.016	4124.38
536.115	4046.38
536.215	4048.38
536.314	3919.38
536.413	3975.38
536.513	3964.38
536.612	4012.38
536.712	3953.38
536.811	4017.38
536.91	3807.38
537.01	3928.38
537.109	3934.38
537.209	3870.38
537.308	3790.38
537.407	3908.38
537.507	3876.38
537.606	3825.38
537.705	3906.38
537.805	3789.38
