Data from 14g_HRC06701__20__203.txt Node

Date: Thu Apr 18 01:58:14 CDT 2024
User: Estudiantes 2
Spectrometer: HR+C0670
Trigger mode: 4
Integration Time (sec): 1.000000E0
Scans to average: 1
Electric dark correction enabled: true
Nonlinearity correction enabled: false
Boxcar width: 0
XAxis mode: Wavelengths
Number of Pixels in Spectrum: 2048
>>>>>Begin Spectral Data<<<<<
407.81	-158.56
407.921	-158.56
408.032	-158.56
408.143	-142.56
408.254	-114.56
408.365	5.44
408.476	247.44
408.587	16.44
408.699	-58.56
408.81	-33.56
408.921	-11.56
409.032	-40.56
409.143	33.44
409.254	69.44
409.365	107.44
409.476	-36.56
409.587	-1.56
409.698	118.44
409.809	77.44
409.92	-94.56
410.031	15.44
410.142	54.44
410.253	-2.56
410.364	60.44
410.475	414.44
410.585	2214.44
410.696	2425.44
410.807	2399.44
410.918	2422.44
411.029	2486.44
411.14	2428.44
411.251	2383.44
411.362	2452.44
411.472	2530.44
411.583	2494.44
411.694	2558.44
411.805	2483.44
411.916	2484.44
412.026	2558.44
412.137	2556.44
412.248	2490.44
412.359	2464.44
412.47	2375.44
412.58	2472.44
412.691	2453.44
412.802	2518.44
412.912	2522.44
413.023	2402.44
413.134	2401.44
413.245	2522.44
413.355	2394.44
413.466	2400.44
413.577	2460.44
413.687	2529.44
413.798	2302.44
413.909	2454.44
414.019	2522.44
414.13	2463.44
414.24	2480.44
414.351	2536.44
414.462	2626.44
414.572	2550.44
414.683	2614.44
414.793	2456.44
414.904	2826.44
415.014	2454.44
415.125	2428.44
415.235	2428.44
415.346	2603.44
415.456	2606.44
415.567	2438.44
415.677	2450.44
415.788	2522.44
415.898	2416.44
416.009	2385.44
416.119	2539.44
416.23	2431.44
416.34	2418.44
416.45	2469.44
416.561	3282.44
416.671	2503.44
416.782	2399.44
416.892	2465.44
417.002	2453.44
417.113	2515.44
417.223	2522.44
417.333	2441.44
417.444	2493.44
417.554	2651.44
417.664	2622.44
417.775	2485.44
417.885	2570.44
417.995	2504.44
418.106	2808.44
418.216	2703.44
418.326	2725.44
418.436	2715.44
418.547	2788.44
418.657	2738.44
418.767	2795.44
418.877	2746.44
418.987	2794.44
419.098	2713.44
419.208	2773.44
419.318	2857.44
419.428	2882.44
419.538	2736.44
419.648	2843.44
419.759	2821.44
419.869	2799.44
419.979	2829.44
420.089	2815.44
420.199	2754.44
420.309	2807.44
420.419	2766.44
420.529	2719.44
420.639	3307.44
420.749	2950.44
420.859	2880.44
420.969	2940.44
421.079	3084.44
421.189	2889.44
421.299	2832.44
421.409	2823.44
421.519	2948.44
421.629	3044.44
421.739	2955.44
421.849	3043.44
421.959	2943.44
422.069	3054.44
422.179	3023.44
422.289	2947.44
422.399	3012.44
422.509	3203.44
422.619	5591.44
422.729	3316.44
422.838	3048.44
422.948	3195.44
423.058	3114.44
423.168	3193.44
423.278	3219.44
423.388	3272.44
423.498	3309.44
423.607	3393.44
423.717	3529.44
423.827	3573.44
423.937	3313.44
424.046	3464.44
424.156	3473.44
424.266	3368.44
424.376	3654.44
424.485	3516.44
424.595	3417.44
424.705	3536.44
424.815	3419.44
424.924	3855.44
425.034	3617.44
425.144	3513.44
425.253	3574.44
425.363	3666.44
425.473	3652.44
425.582	3459.44
425.692	3574.44
425.801	3617.44
425.911	3703.44
426.021	3663.44
426.13	3895.44
426.24	3910.44
426.349	3831.44
426.459	3766.44
426.568	3653.44
426.678	3829.44
426.787	3825.44
426.897	3820.44
427.006	3800.44
427.116	3888.44
427.225	3912.44
427.335	3985.44
427.444	3784.44
427.554	3941.44
427.663	3931.44
427.773	3944.44
427.882	4071.44
427.992	4015.44
428.101	4005.44
428.21	4031.44
428.32	4123.44
428.429	4043.44
428.539	4254.44
428.648	4152.44
428.757	4122.44
428.867	4150.44
428.976	4363.44
429.085	4163.44
429.195	4229.44
429.304	4235.44
429.413	4215.44
429.523	4290.44
429.632	4328.44
429.741	4209.44
429.85	4278.44
429.96	4341.44
430.069	4376.44
430.178	4287.44
430.287	4674.44
430.397	4368.44
430.506	4400.44
430.615	4460.44
430.724	4462.44
430.833	4427.44
430.943	4424.44
431.052	4503.44
431.161	4494.44
431.27	4516.44
431.379	4576.44
431.488	4891.44
431.597	4751.44
431.706	4753.44
431.816	4744.44
431.925	4624.44
432.034	4621.44
432.143	4789.44
432.252	4695.44
432.361	4794.44
432.47	4717.44
432.579	4672.44
432.688	4653.44
432.797	4728.44
432.906	4682.44
433.015	4721.44
433.124	5093.44
433.233	4937.44
433.342	4776.44
433.451	4861.44
433.56	4771.44
433.669	4765.44
433.778	4690.44
433.886	4760.44
433.995	4758.44
434.104	4986.44
434.213	4941.44
434.322	4922.44
434.431	5098.44
434.54	5145.44
434.649	5361.44
434.757	5290.44
434.866	5086.44
434.975	5224.44
435.084	5118.44
435.193	5063.44
435.301	5130.44
435.41	5078.44
435.519	5157.44
435.628	4650.44
435.737	4595.44
435.845	4640.44
435.954	4526.44
436.063	4606.44
436.171	4506.44
436.28	4464.44
436.389	4666.44
436.498	4401.44
436.606	4455.44
436.715	4671.44
436.823	4350.44
436.932	4263.44
437.041	4255.44
437.149	4321.44
437.258	4164.44
437.367	4145.44
437.475	4257.44
437.584	4476.44
437.692	4165.44
437.801	5731.44
437.91	4226.44
438.018	4072.44
438.127	4132.44
438.235	4224.44
438.344	4205.44
438.452	4091.44
438.561	4055.44
438.669	4028.44
438.778	3963.44
438.886	4075.44
438.995	4015.44
439.103	4043.44
439.212	4117.44
439.32	4067.44
439.428	3928.44
439.537	4077.44
439.645	4215.44
439.754	4088.44
439.862	3988.44
439.97	4139.44
440.079	4066.44
440.187	4047.44
440.295	4309.44
440.404	4086.44
440.512	4219.44
440.62	4232.44
440.729	4203.44
440.837	4208.44
440.945	4991.44
441.054	4396.44
441.162	4357.44
441.27	4464.44
441.378	4406.44
441.487	4497.44
441.595	4905.44
441.703	4643.44
441.811	4445.44
441.92	4445.44
442.028	4440.44
442.136	4432.44
442.244	4361.44
442.352	4434.44
442.461	4270.44
442.569	4254.44
442.677	4375.44
442.785	4407.44
442.893	4202.44
443.001	4254.44
443.109	4256.44
443.217	4321.44
443.325	4186.44
443.434	4908.44
443.542	4630.44
443.65	4371.44
443.758	4595.44
443.866	4481.44
443.974	4785.44
444.082	4651.44
444.19	4773.44
444.298	4790.44
444.406	4953.44
444.514	4990.44
444.622	5067.44
444.73	5097.44
444.838	5029.44
444.946	4998.44
445.054	4765.44
445.161	4791.44
445.269	4575.44
445.377	4598.44
445.485	4549.44
445.593	4532.44
445.701	4550.44
445.809	4481.44
445.917	4492.44
446.025	4336.44
446.132	4451.44
446.24	4511.44
446.348	4425.44
446.456	4314.44
446.564	4395.44
446.671	4399.44
446.779	4352.44
446.887	4331.44
446.995	4346.44
447.102	4289.44
447.21	4406.44
447.318	4344.44
447.426	4266.44
447.533	4573.44
447.641	5538.44
447.749	4354.44
447.856	4310.44
447.964	4342.44
448.072	4385.44
448.179	4255.44
448.287	4415.44
448.395	4454.44
448.502	4253.44
448.61	4364.44
448.718	4399.44
448.825	4296.44
448.933	4236.44
449.04	4393.44
449.148	4370.44
449.256	4433.44
449.363	4491.44
449.471	4427.44
449.578	4473.44
449.686	4486.44
449.793	4588.44
449.901	4454.44
450.008	4545.44
450.116	4717.44
450.223	4582.44
450.331	4834.44
450.438	4798.44
450.546	4851.44
450.653	4836.44
450.76	4907.44
450.868	4918.44
450.975	5076.44
451.083	4941.44
451.19	5031.44
451.297	4977.44
451.405	5023.44
451.512	4977.44
451.619	5091.44
451.727	5151.44
451.834	4998.44
451.941	5145.44
452.049	5041.44
452.156	5078.44
452.263	5190.44
452.371	5152.44
452.478	5183.44
452.585	5356.44
452.692	5029.44
452.8	5192.44
452.907	5406.44
453.014	5255.44
453.121	5231.44
453.229	5348.44
453.336	5362.44
453.443	5388.44
453.55	5374.44
453.657	5261.44
453.765	5474.44
453.872	5416.44
453.979	5481.44
454.086	5478.44
454.193	5494.44
454.3	5416.44
454.407	5624.44
454.514	5593.44
454.621	5597.44
454.729	5485.44
454.836	5608.44
454.943	5683.44
455.05	5593.44
455.157	5714.44
455.264	5563.44
455.371	5663.44
455.478	5707.44
455.585	5897.44
455.692	5861.44
455.799	5862.44
455.906	5704.44
456.013	5790.44
456.12	5707.44
456.227	5819.44
456.334	5949.44
456.44	6022.44
456.547	5930.44
456.654	5903.44
456.761	5988.44
456.868	6073.44
456.975	6168.44
457.082	6034.44
457.189	5852.44
457.296	6080.44
457.402	6125.44
457.509	5918.44
457.616	6195.44
457.723	6562.44
457.83	6267.44
457.936	6277.44
458.043	6777.44
458.15	6382.44
458.257	6507.44
458.363	6592.44
458.47	6670.44
458.577	6853.44
458.684	6814.44
458.79	7029.44
458.897	7069.44
459.004	7184.44
459.11	7208.44
459.217	7214.44
459.324	7224.44
459.43	7539.44
459.537	7657.44
459.644	7534.44
459.75	7676.44
459.857	8146.44
459.964	7815.44
460.07	7855.44
460.177	8021.44
460.283	8069.44
460.39	8158.44
460.496	8098.44
460.603	7996.44
460.71	8037.44
460.816	8107.44
460.923	7941.44
461.029	7944.44
461.136	8013.44
461.242	8020.44
461.349	7992.44
461.455	8051.44
461.562	8398.44
461.668	8207.44
461.774	8093.44
461.881	8251.44
461.987	8374.44
462.094	8406.44
462.2	8542.44
462.307	8515.44
462.413	8484.44
462.519	8810.44
462.626	9169.44
462.732	9038.44
462.838	9466.44
462.945	9741.44
463.051	9723.44
463.157	9692.44
463.264	9447.44
463.37	9137.44
463.476	8827.44
463.583	8888.44
463.689	8651.44
463.795	8687.44
463.901	8739.44
464.008	8945.44
464.114	8839.44
464.22	8849.44
464.326	8832.44
464.433	8466.44
464.539	8414.44
464.645	8201.44
464.751	8409.44
464.857	7951.44
464.963	7707.44
465.07	7559.44
465.176	7352.44
465.282	7140.44
465.388	7036.44
465.494	6743.44
465.6	6707.44
465.706	6521.44
465.812	6509.44
465.918	6506.44
466.024	6345.44
466.131	6351.44
466.237	6171.44
466.343	6020.44
466.449	5899.44
466.555	5811.44
466.661	5754.44
466.767	5775.44
466.873	5762.44
466.979	5874.44
467.085	5692.44
467.191	5606.44
467.296	5663.44
467.402	5713.44
467.508	5532.44
467.614	5717.44
467.72	5577.44
467.826	5298.44
467.932	5453.44
468.038	5357.44
468.144	5219.44
468.25	5210.44
468.355	5173.44
468.461	5214.44
468.567	5157.44
468.673	5096.44
468.779	5157.44
468.885	5054.44
468.99	5014.44
469.096	5101.44
469.202	5227.44
469.308	5168.44
469.413	5320.44
469.519	5216.44
469.625	5153.44
469.731	5272.44
469.836	5197.44
469.942	5352.44
470.048	5323.44
470.153	5327.44
470.259	5323.44
470.365	5335.44
470.47	5375.44
470.576	5197.44
470.682	5113.44
470.787	5162.44
470.893	4983.44
470.999	5106.44
471.104	4986.44
471.21	4865.44
471.315	4727.44
471.421	4650.44
471.527	4988.44
471.632	4725.44
471.738	4774.44
471.843	4696.44
471.949	4634.44
472.054	4664.44
472.16	4552.44
472.265	4599.44
472.371	4440.44
472.476	4504.44
472.582	4598.44
472.687	4408.44
472.793	4380.44
472.898	4448.44
473.003	4332.44
473.109	4293.44
473.214	4286.44
473.32	4224.44
473.425	4306.44
473.53	4344.44
473.636	4271.44
473.741	4282.44
473.847	4269.44
473.952	4342.44
474.057	4271.44
474.163	4271.44
474.268	4278.44
474.373	4338.44
474.478	4162.44
474.584	4223.44
474.689	4278.44
474.794	4271.44
474.9	4605.44
475.005	4278.44
475.11	4373.44
475.215	4247.44
475.321	4264.44
475.426	4429.44
475.531	4495.44
475.636	4291.44
475.741	4264.44
475.846	4442.44
475.952	4528.44
476.057	4390.44
476.162	4395.44
476.267	4493.44
476.372	4653.44
476.477	4361.44
476.582	4542.44
476.687	4489.44
476.793	4404.44
476.898	4557.44
477.003	4550.44
477.108	4386.44
477.213	4503.44
477.318	4536.44
477.423	4649.44
477.528	4737.44
477.633	4832.44
477.738	4780.44
477.843	4683.44
477.948	4814.44
478.053	4872.44
478.158	4806.44
478.263	4903.44
478.368	5007.44
478.473	5057.44
478.578	4954.44
478.682	4987.44
478.787	5103.44
478.892	5018.44
478.997	5195.44
479.102	4986.44
479.207	5051.44
479.312	5177.44
479.417	5152.44
479.521	5088.44
479.626	5375.44
479.731	5410.44
479.836	5232.44
479.941	5384.44
480.045	5449.44
480.15	5477.44
480.255	5495.44
480.36	5605.44
480.465	5430.44
480.569	5636.44
480.674	5498.44
480.779	5390.44
480.883	5256.44
480.988	5401.44
481.093	5377.44
481.197	5324.44
481.302	5336.44
481.407	5323.44
481.511	6628.44
481.616	5361.44
481.721	5328.44
481.825	5463.44
481.93	5156.44
482.035	5391.44
482.139	5265.44
482.244	5290.44
482.348	5295.44
482.453	5374.44
482.557	5413.44
482.662	5389.44
482.767	5406.44
482.871	5358.44
482.976	5403.44
483.08	5502.44
483.185	5676.44
483.289	5462.44
483.394	5601.44
483.498	5541.44
483.603	5560.44
483.707	5638.44
483.811	5785.44
483.916	5726.44
484.02	5685.44
484.125	5880.44
484.229	5902.44
484.333	6040.44
484.438	5917.44
484.542	5923.44
484.647	5901.44
484.751	6113.44
484.855	6033.44
484.96	5996.44
485.064	6103.44
485.168	6325.44
485.273	6185.44
485.377	6218.44
485.481	6677.44
485.585	6331.44
485.69	6275.44
485.794	6430.44
485.898	6452.44
486.002	6306.44
486.107	6400.44
486.211	6395.44
486.315	6451.44
486.419	6429.44
486.524	6398.44
486.628	6510.44
486.732	6392.44
486.836	6390.44
486.94	6545.44
487.044	6382.44
487.148	6518.44
487.253	6466.44
487.357	6576.44
487.461	6807.44
487.565	6508.44
487.669	6511.44
487.773	6490.44
487.877	6622.44
487.981	6652.44
488.085	6500.44
488.189	6556.44
488.293	6648.44
488.397	7093.44
488.501	6557.44
488.605	6635.44
488.709	6475.44
488.813	6657.44
488.917	6555.44
489.021	6472.44
489.125	6859.44
489.229	6517.44
489.333	6822.44
489.437	6664.44
489.541	6693.44
489.645	6587.44
489.749	6581.44
489.853	6857.44
489.956	6725.44
490.06	6702.44
490.164	6760.44
490.268	6657.44
490.372	6715.44
490.476	6668.44
490.579	6695.44
490.683	7343.44
490.787	6769.44
490.891	6768.44
490.995	6721.44
491.098	6798.44
491.202	6791.44
491.306	6686.44
491.41	6621.44
491.513	6681.44
491.617	6689.44
491.721	6853.44
491.824	6894.44
491.928	6814.44
492.032	6992.44
492.136	6664.44
492.239	6765.44
492.343	6794.44
492.446	7224.44
492.55	6827.44
492.654	6693.44
492.757	6616.44
492.861	6832.44
492.965	6630.44
493.068	6803.44
493.172	6855.44
493.275	6728.44
493.379	6663.44
493.482	6814.44
493.586	6949.44
493.689	6958.44
493.793	6809.44
493.896	6882.44
494	6831.44
494.103	6750.44
494.207	7079.44
494.31	7118.44
494.414	6937.44
494.517	6729.44
494.621	6627.44
494.724	6779.44
494.828	6679.44
494.931	6757.44
495.034	6617.44
495.138	6779.44
495.241	6641.44
495.345	7477.44
495.448	6757.44
495.551	6634.44
495.655	6653.44
495.758	6624.44
495.861	6543.44
495.965	6676.44
496.068	6702.44
496.171	6668.44
496.274	6778.44
496.378	6785.44
496.481	6789.44
496.584	6767.44
496.687	6725.44
496.791	6910.44
496.894	6886.44
496.997	6958.44
497.1	6830.44
497.204	6986.44
497.307	7000.44
497.41	7155.44
497.513	7298.44
497.616	7174.44
497.719	7141.44
497.823	7267.44
497.926	7402.44
498.029	7512.44
498.132	7622.44
498.235	7910.44
498.338	7867.44
498.441	8113.44
498.544	8257.44
498.647	8505.44
498.75	8635.44
498.853	9090.44
498.956	9061.44
499.059	9535.44
499.163	9528.44
499.266	9981.44
499.369	10250.44
499.471	10680.44
499.574	10984.44
499.677	11242.44
499.78	11743.44
499.883	12361.44
499.986	12945.44
500.089	13219.44
500.192	13559.44
500.295	13732.44
500.398	13479.44
500.501	13384.44
500.604	12938.44
500.707	12582.44
500.809	12194.44
500.912	11969.44
501.015	11311.44
501.118	10649.44
501.221	10435.44
501.324	9906.44
501.426	9538.44
501.529	9093.44
501.632	8809.44
501.735	8451.44
501.837	8296.44
501.94	8099.44
502.043	7888.44
502.146	7733.44
502.248	7642.44
502.351	7329.44
502.454	7237.44
502.557	7076.44
502.659	7013.44
502.762	6601.44
502.865	6681.44
502.967	6582.44
503.07	6466.44
503.173	6230.44
503.275	6309.44
503.378	6168.44
503.48	6168.44
503.583	6271.44
503.686	6112.44
503.788	6262.44
503.891	6080.44
503.993	6238.44
504.096	5834.44
504.198	6129.44
504.301	6000.44
504.403	6030.44
504.506	6061.44
504.608	5983.44
504.711	5768.44
504.813	5768.44
504.916	5582.44
505.018	5360.44
505.121	5171.44
505.223	5428.44
505.326	5170.44
505.428	5218.44
505.531	5197.44
505.633	5090.44
505.735	4912.44
505.838	4876.44
505.94	5013.44
506.042	4773.44
506.145	4831.44
506.247	4898.44
506.35	4730.44
506.452	4743.44
506.554	4834.44
506.656	4807.44
506.759	4642.44
506.861	4673.44
506.963	4594.44
507.066	4594.44
507.168	4704.44
507.27	4674.44
507.372	4518.44
507.475	4582.44
507.577	4617.44
507.679	4460.44
507.781	4421.44
507.883	4535.44
507.986	4356.44
508.088	4442.44
508.19	4466.44
508.292	4404.44
508.394	4399.44
508.496	4304.44
508.598	4397.44
508.701	4397.44
508.803	4333.44
508.905	4341.44
509.007	4341.44
509.109	4321.44
509.211	4362.44
509.313	4239.44
509.415	4272.44
509.517	4351.44
509.619	4151.44
509.721	4174.44
509.823	4201.44
509.925	4411.44
510.027	4205.44
510.129	4384.44
510.231	4300.44
510.333	4188.44
510.435	4145.44
510.537	4334.44
510.639	4246.44
510.741	4135.44
510.843	4329.44
510.945	4155.44
511.047	4147.44
511.148	4277.44
511.25	4174.44
511.352	4118.44
511.454	4126.44
511.556	4338.44
511.658	4218.44
511.76	4246.44
511.861	4459.44
511.963	4249.44
512.065	4125.44
512.167	4137.44
512.268	4418.44
512.37	4192.44
512.472	4265.44
512.574	4346.44
512.676	4364.44
512.777	4247.44
512.879	4242.44
512.981	4183.44
513.082	4234.44
513.184	4320.44
513.286	4815.44
513.387	4327.44
513.489	4453.44
513.591	4348.44
513.692	4429.44
513.794	4485.44
513.896	4303.44
513.997	4230.44
514.099	4291.44
514.2	4488.44
514.302	4444.44
514.404	4426.44
514.505	4407.44
514.607	4509.44
514.708	4407.44
514.81	4441.44
514.911	4570.44
515.013	4623.44
515.114	4581.44
515.216	4571.44
515.317	4603.44
515.419	4569.44
515.52	4774.44
515.622	4687.44
515.723	4689.44
515.825	4955.44
515.926	4821.44
516.027	4859.44
516.129	4821.44
516.23	4972.44
516.332	5119.44
516.433	5080.44
516.534	5318.44
516.636	5301.44
516.737	5216.44
516.838	6431.44
516.94	5549.44
517.041	5581.44
517.142	5902.44
517.244	5916.44
517.345	5864.44
517.446	5944.44
517.547	6062.44
517.649	5881.44
517.75	6045.44
517.851	6097.44
517.952	6212.44
518.054	6032.44
518.155	6093.44
518.256	5749.44
518.357	5920.44
518.458	5690.44
518.56	5512.44
518.661	5469.44
518.762	5371.44
518.863	5520.44
518.964	5432.44
519.065	5279.44
519.166	5229.44
519.268	5091.44
519.369	5460.44
519.47	5262.44
519.571	5198.44
519.672	4975.44
519.773	5000.44
519.874	5065.44
519.975	5143.44
520.076	4981.44
520.177	5083.44
520.278	4974.44
520.379	4964.44
520.48	4972.44
520.581	4779.44
520.682	4848.44
520.783	4983.44
520.884	4998.44
520.985	4821.44
521.086	4919.44
521.187	4940.44
521.288	4849.44
521.389	4954.44
521.489	4783.44
521.59	4678.44
521.691	4824.44
521.792	4913.44
521.893	4862.44
521.994	4912.44
522.095	4932.44
522.195	4868.44
522.296	5004.44
522.397	4972.44
522.498	4831.44
522.599	4780.44
522.699	4827.44
522.8	4913.44
522.901	4867.44
523.002	4899.44
523.102	5084.44
523.203	4909.44
523.304	4979.44
523.405	4929.44
523.505	4774.44
523.606	4845.44
523.707	4915.44
523.807	4797.44
523.908	4937.44
524.009	5040.44
524.109	4881.44
524.21	4770.44
524.31	4893.44
524.411	4896.44
524.512	5034.44
524.612	5001.44
524.713	5071.44
524.813	4852.44
524.914	5236.44
525.014	10382.44
525.115	5266.44
525.216	4911.44
525.316	5013.44
525.417	4958.44
525.517	4764.44
525.618	4735.44
525.718	4804.44
525.819	4750.44
525.919	4920.44
526.019	4829.44
526.12	4885.44
526.22	4698.44
526.321	4860.44
526.421	4713.44
526.522	4802.44
526.622	4786.44
526.722	4742.44
526.823	4851.44
526.923	4854.44
527.023	4917.44
527.124	4828.44
527.224	4873.44
527.324	4805.44
527.425	4773.44
527.525	4777.44
527.625	4857.44
527.726	4747.44
527.826	4743.44
527.926	4906.44
528.026	4805.44
528.127	4822.44
528.227	4809.44
528.327	4927.44
528.427	4823.44
528.528	4839.44
528.628	4963.44
528.728	4840.44
528.828	4869.44
528.928	4957.44
529.029	4818.44
529.129	4802.44
529.229	4793.44
529.329	4749.44
529.429	4849.44
529.529	4915.44
529.629	4731.44
529.729	4754.44
529.829	4913.44
529.93	4732.44
530.03	4742.44
530.13	4695.44
530.23	4751.44
530.33	4787.44
530.43	4685.44
530.53	4730.44
530.63	4710.44
530.73	4565.44
530.83	4546.44
530.93	4591.44
531.03	4583.44
531.13	4709.44
531.23	4594.44
531.33	4572.44
531.429	4683.44
531.529	4693.44
531.629	4631.44
531.729	4437.44
531.829	4572.44
531.929	4541.44
532.029	4604.44
532.129	4476.44
532.229	4688.44
532.328	4520.44
532.428	4473.44
532.528	4502.44
532.628	4405.44
532.728	4496.44
532.827	4485.44
532.927	4482.44
533.027	4369.44
533.127	4637.44
533.227	4486.44
533.326	4537.44
533.426	4395.44
533.526	4496.44
533.625	4512.44
533.725	4603.44
533.825	4460.44
533.924	4276.44
534.024	4196.44
534.124	4277.44
534.223	4392.44
534.323	4594.44
534.423	4395.44
534.522	4321.44
534.622	4166.44
534.722	4217.44
534.821	4259.44
534.921	4181.44
535.02	4103.44
535.12	4238.44
535.219	4248.44
535.319	4274.44
535.419	4260.44
535.518	4082.44
535.618	4079.44
535.717	4209.44
535.817	3938.44
535.916	3913.44
536.016	4151.44
536.115	4016.44
536.215	3939.44
536.314	3894.44
536.413	3933.44
536.513	3950.44
536.612	3865.44
536.712	3894.44
536.811	3782.44
536.91	3736.44
537.01	3762.44
537.109	3849.44
537.209	3780.44
537.308	3772.44
537.407	3794.44
537.507	3669.44
537.606	3778.44
537.705	3806.44
537.805	3672.44
