Data from 14g_HRC06701__60__243.txt Node

Date: Thu Apr 18 01:58:54 CDT 2024
User: Estudiantes 2
Spectrometer: HR+C0670
Trigger mode: 4
Integration Time (sec): 1.000000E0
Scans to average: 1
Electric dark correction enabled: true
Nonlinearity correction enabled: false
Boxcar width: 0
XAxis mode: Wavelengths
Number of Pixels in Spectrum: 2048
>>>>>Begin Spectral Data<<<<<
407.81	-144.25
407.921	-144.25
408.032	-144.25
408.143	-83.25
408.254	-143.25
408.365	13.75
408.476	277.75
408.587	-13.25
408.699	-27.25
408.81	6.75
408.921	-36.25
409.032	-66.25
409.143	41.75
409.254	31.75
409.365	56.75
409.476	-3.25
409.587	37.75
409.698	50.75
409.809	65.75
409.92	6.75
410.031	-42.25
410.142	59.75
410.253	72.75
410.364	31.75
410.475	753.75
410.585	3623.75
410.696	3864.75
410.807	3831.75
410.918	3775.75
411.029	3919.75
411.14	3840.75
411.251	3901.75
411.362	4014.75
411.472	3978.75
411.583	3924.75
411.694	4115.75
411.805	3945.75
411.916	4047.75
412.026	4133.75
412.137	4038.75
412.248	4057.75
412.359	4007.75
412.47	3992.75
412.58	3908.75
412.691	3956.75
412.802	3905.75
412.912	3929.75
413.023	3919.75
413.134	3954.75
413.245	3906.75
413.355	3903.75
413.466	3834.75
413.577	3905.75
413.687	3940.75
413.798	3740.75
413.909	4039.75
414.019	3977.75
414.13	3927.75
414.24	4006.75
414.351	4020.75
414.462	4143.75
414.572	4009.75
414.683	3987.75
414.793	3971.75
414.904	4312.75
415.014	4024.75
415.125	3874.75
415.235	3901.75
415.346	4185.75
415.456	4100.75
415.567	3901.75
415.677	4007.75
415.788	3935.75
415.898	3877.75
416.009	3960.75
416.119	3905.75
416.23	3900.75
416.34	3834.75
416.45	3983.75
416.561	4860.75
416.671	3958.75
416.782	3976.75
416.892	4008.75
417.002	4019.75
417.113	4182.75
417.223	4021.75
417.333	4008.75
417.444	4031.75
417.554	4211.75
417.664	4184.75
417.775	4074.75
417.885	4265.75
417.995	4184.75
418.106	4377.75
418.216	4270.75
418.326	4423.75
418.436	4403.75
418.547	4415.75
418.657	4427.75
418.767	4614.75
418.877	4542.75
418.987	4557.75
419.098	4527.75
419.208	4664.75
419.318	4592.75
419.428	4645.75
419.538	4465.75
419.648	4664.75
419.759	4584.75
419.869	4513.75
419.979	4495.75
420.089	4508.75
420.199	4536.75
420.309	4599.75
420.419	4551.75
420.529	4524.75
420.639	5146.75
420.749	4704.75
420.859	4662.75
420.969	4690.75
421.079	4909.75
421.189	4737.75
421.299	4780.75
421.409	4813.75
421.519	4852.75
421.629	4855.75
421.739	4783.75
421.849	4745.75
421.959	4863.75
422.069	4884.75
422.179	4831.75
422.289	4892.75
422.399	5042.75
422.509	5154.75
422.619	7785.75
422.729	5339.75
422.838	5168.75
422.948	5159.75
423.058	5192.75
423.168	5279.75
423.278	5306.75
423.388	5307.75
423.498	5552.75
423.607	5518.75
423.717	5604.75
423.827	5831.75
423.937	5604.75
424.046	5599.75
424.156	5755.75
424.266	5673.75
424.376	5928.75
424.485	5876.75
424.595	5800.75
424.705	5668.75
424.815	5792.75
424.924	6279.75
425.034	5758.75
425.144	5716.75
425.253	5841.75
425.363	5935.75
425.473	5921.75
425.582	5792.75
425.692	5963.75
425.801	5837.75
425.911	6184.75
426.021	6086.75
426.13	6190.75
426.24	6237.75
426.349	6320.75
426.459	6215.75
426.568	6127.75
426.678	6202.75
426.787	6366.75
426.897	6206.75
427.006	6345.75
427.116	6482.75
427.225	6338.75
427.335	6513.75
427.444	6390.75
427.554	6447.75
427.663	6505.75
427.773	6555.75
427.882	6637.75
427.992	6618.75
428.101	6609.75
428.21	6757.75
428.32	6734.75
428.429	6713.75
428.539	7085.75
428.648	6805.75
428.757	6768.75
428.867	6916.75
428.976	7060.75
429.085	6967.75
429.195	6920.75
429.304	6935.75
429.413	7123.75
429.523	7151.75
429.632	7118.75
429.741	7109.75
429.85	7042.75
429.96	7292.75
430.069	7077.75
430.178	7186.75
430.287	7635.75
430.397	7383.75
430.506	7382.75
430.615	7429.75
430.724	7415.75
430.833	7469.75
430.943	7542.75
431.052	7431.75
431.161	7531.75
431.27	7690.75
431.379	7685.75
431.488	8264.75
431.597	7928.75
431.706	8185.75
431.816	8061.75
431.925	7936.75
432.034	7931.75
432.143	8014.75
432.252	7946.75
432.361	8045.75
432.47	7934.75
432.579	7900.75
432.688	7925.75
432.797	7996.75
432.906	7903.75
433.015	7953.75
433.124	8308.75
433.233	8087.75
433.342	8074.75
433.451	8194.75
433.56	8045.75
433.669	8087.75
433.778	8112.75
433.886	8306.75
433.995	8137.75
434.104	8501.75
434.213	8356.75
434.322	8485.75
434.431	8754.75
434.54	8828.75
434.649	9109.75
434.757	9111.75
434.866	9008.75
434.975	8848.75
435.084	8586.75
435.193	8600.75
435.301	8570.75
435.41	8596.75
435.519	8556.75
435.628	7931.75
435.737	7821.75
435.845	7784.75
435.954	7725.75
436.063	7623.75
436.171	7640.75
436.28	7644.75
436.389	7710.75
436.498	7516.75
436.606	7773.75
436.715	7743.75
436.823	7469.75
436.932	7425.75
437.041	7289.75
437.149	7357.75
437.258	7202.75
437.367	7145.75
437.475	7102.75
437.584	7416.75
437.692	7072.75
437.801	8725.75
437.91	7156.75
438.018	7002.75
438.127	6941.75
438.235	7034.75
438.344	7060.75
438.452	7094.75
438.561	6945.75
438.669	6855.75
438.778	6872.75
438.886	6887.75
438.995	6884.75
439.103	7027.75
439.212	6981.75
439.32	7053.75
439.428	6890.75
439.537	6984.75
439.645	7163.75
439.754	7030.75
439.862	6870.75
439.97	7185.75
440.079	7091.75
440.187	7017.75
440.295	7234.75
440.404	7231.75
440.512	7214.75
440.62	7187.75
440.729	7336.75
440.837	7533.75
440.945	8151.75
441.054	7667.75
441.162	7660.75
441.27	7817.75
441.378	7896.75
441.487	8024.75
441.595	8402.75
441.703	8062.75
441.811	7816.75
441.92	7904.75
442.028	7502.75
442.136	7609.75
442.244	7677.75
442.352	7567.75
442.461	7377.75
442.569	7474.75
442.677	7587.75
442.785	7527.75
442.893	7383.75
443.001	7569.75
443.109	7364.75
443.217	7437.75
443.325	7629.75
443.434	8185.75
443.542	7871.75
443.65	7725.75
443.758	7834.75
443.866	7899.75
443.974	8255.75
444.082	8221.75
444.19	8272.75
444.298	8526.75
444.406	8709.75
444.514	8887.75
444.622	8929.75
444.73	8946.75
444.838	8692.75
444.946	8686.75
445.054	8347.75
445.161	8254.75
445.269	8103.75
445.377	7953.75
445.485	8161.75
445.593	7911.75
445.701	7881.75
445.809	7817.75
445.917	7700.75
446.025	7745.75
446.132	8030.75
446.24	7780.75
446.348	7698.75
446.456	7700.75
446.564	7557.75
446.671	7630.75
446.779	7684.75
446.887	7632.75
446.995	7499.75
447.102	7530.75
447.21	7631.75
447.318	7524.75
447.426	7480.75
447.533	7836.75
447.641	8729.75
447.749	7596.75
447.856	7481.75
447.964	7450.75
448.072	7459.75
448.179	7520.75
448.287	7669.75
448.395	7673.75
448.502	7470.75
448.61	7711.75
448.718	7519.75
448.825	7562.75
448.933	7671.75
449.04	7602.75
449.148	7766.75
449.256	7647.75
449.363	7700.75
449.471	7839.75
449.578	7793.75
449.686	7822.75
449.793	8041.75
449.901	7978.75
450.008	8030.75
450.116	8119.75
450.223	8111.75
450.331	8290.75
450.438	8348.75
450.546	8454.75
450.653	8663.75
450.76	8644.75
450.868	8589.75
450.975	8861.75
451.083	8735.75
451.19	8737.75
451.297	8750.75
451.405	8839.75
451.512	8766.75
451.619	8969.75
451.727	8970.75
451.834	8688.75
451.941	8918.75
452.049	8879.75
452.156	8960.75
452.263	8998.75
452.371	9060.75
452.478	9112.75
452.585	9229.75
452.692	9033.75
452.8	9244.75
452.907	9343.75
453.014	9158.75
453.121	9376.75
453.229	9233.75
453.336	9394.75
453.443	9526.75
453.55	9288.75
453.657	9185.75
453.765	9515.75
453.872	9454.75
453.979	9500.75
454.086	9629.75
454.193	9773.75
454.3	9435.75
454.407	9644.75
454.514	9746.75
454.621	9573.75
454.729	9640.75
454.836	9889.75
454.943	9796.75
455.05	9768.75
455.157	9993.75
455.264	9823.75
455.371	10000.75
455.478	9994.75
455.585	10358.75
455.692	10101.75
455.799	10233.75
455.906	10223.75
456.013	10037.75
456.12	10033.75
456.227	10344.75
456.334	10390.75
456.44	10498.75
456.547	10519.75
456.654	10315.75
456.761	10565.75
456.868	10628.75
456.975	10748.75
457.082	10425.75
457.189	10451.75
457.296	10623.75
457.402	10844.75
457.509	10589.75
457.616	11079.75
457.723	11310.75
457.83	11130.75
457.936	11148.75
458.043	11637.75
458.15	11382.75
458.257	11490.75
458.363	11868.75
458.47	11859.75
458.577	11995.75
458.684	12221.75
458.79	12365.75
458.897	12492.75
459.004	13060.75
459.11	12869.75
459.217	12901.75
459.324	13150.75
459.43	13393.75
459.537	13626.75
459.644	13625.75
459.75	13629.75
459.857	14029.75
459.964	14019.75
460.07	14126.75
460.177	14328.75
460.283	14417.75
460.39	14562.75
460.496	14359.75
460.603	14407.75
460.71	14429.75
460.816	14328.75
460.923	14285.75
461.029	14218.75
461.136	14562.75
461.242	14380.75
461.349	14213.75
461.455	14562.75
461.562	14562.75
461.668	14562.75
461.774	14562.75
461.881	14562.75
461.987	14562.75
462.094	14562.75
462.2	14562.75
462.307	14562.75
462.413	14562.75
462.519	14562.75
462.626	14562.75
462.732	14562.75
462.838	14562.75
462.945	14562.75
463.051	14562.75
463.157	14562.75
463.264	14562.75
463.37	14562.75
463.476	14562.75
463.583	14562.75
463.689	14562.75
463.795	14562.75
463.901	14562.75
464.008	14562.75
464.114	14562.75
464.22	14562.75
464.326	14562.75
464.433	14562.75
464.539	14562.75
464.645	14562.75
464.751	14562.75
464.857	14548.75
464.963	14003.75
465.07	13668.75
465.176	13160.75
465.282	12978.75
465.388	12726.75
465.494	12230.75
465.6	12077.75
465.706	11834.75
465.812	11729.75
465.918	11693.75
466.024	11512.75
466.131	11366.75
466.237	11072.75
466.343	10837.75
466.449	10721.75
466.555	10541.75
466.661	10231.75
466.767	10374.75
466.873	10238.75
466.979	10482.75
467.085	10287.75
467.191	10300.75
467.296	10257.75
467.402	10047.75
467.508	10136.75
467.614	10144.75
467.72	9747.75
467.826	9653.75
467.932	9626.75
468.038	9434.75
468.144	9435.75
468.25	9336.75
468.355	9431.75
468.461	9399.75
468.567	9335.75
468.673	9371.75
468.779	9359.75
468.885	9204.75
468.99	9176.75
469.096	9275.75
469.202	9308.75
469.308	9298.75
469.413	9382.75
469.519	9324.75
469.625	9412.75
469.731	9502.75
469.836	9412.75
469.942	9687.75
470.048	9629.75
470.153	9419.75
470.259	9490.75
470.365	9743.75
470.47	9551.75
470.576	9427.75
470.682	9328.75
470.787	9294.75
470.893	9009.75
470.999	9087.75
471.104	9029.75
471.21	8845.75
471.315	8617.75
471.421	8565.75
471.527	8747.75
471.632	8606.75
471.738	8476.75
471.843	8189.75
471.949	8222.75
472.054	8228.75
472.16	8151.75
472.265	8016.75
472.371	7953.75
472.476	8017.75
472.582	8088.75
472.687	7970.75
472.793	7915.75
472.898	7758.75
473.003	7800.75
473.109	7691.75
473.214	7634.75
473.32	7663.75
473.425	7688.75
473.53	7685.75
473.636	7593.75
473.741	7576.75
473.847	7696.75
473.952	7573.75
474.057	7654.75
474.163	7728.75
474.268	7606.75
474.373	7582.75
474.478	7493.75
474.584	7514.75
474.689	7534.75
474.794	7717.75
474.9	7710.75
475.005	7550.75
475.11	7761.75
475.215	7485.75
475.321	7460.75
475.426	7811.75
475.531	7658.75
475.636	7507.75
475.741	7564.75
475.846	7843.75
475.952	7894.75
476.057	7705.75
476.162	7861.75
476.267	7905.75
476.372	7984.75
476.477	7778.75
476.582	7809.75
476.687	7707.75
476.793	7929.75
476.898	7913.75
477.003	7955.75
477.108	8019.75
477.213	8033.75
477.318	8171.75
477.423	8283.75
477.528	8266.75
477.633	8346.75
477.738	8625.75
477.843	8410.75
477.948	8651.75
478.053	8564.75
478.158	8678.75
478.263	8857.75
478.368	8649.75
478.473	8996.75
478.578	8954.75
478.682	8959.75
478.787	9062.75
478.892	8977.75
478.997	9180.75
479.102	9014.75
479.207	8875.75
479.312	9242.75
479.417	9071.75
479.521	9176.75
479.626	9301.75
479.731	9212.75
479.836	9351.75
479.941	9628.75
480.045	9661.75
480.15	9780.75
480.255	9786.75
480.36	9731.75
480.465	9724.75
480.569	9909.75
480.674	9565.75
480.779	9416.75
480.883	9324.75
480.988	9577.75
481.093	9441.75
481.197	9375.75
481.302	9512.75
481.407	9426.75
481.511	11181.75
481.616	9440.75
481.721	9322.75
481.825	9486.75
481.93	9213.75
482.035	9223.75
482.139	9456.75
482.244	9367.75
482.348	9461.75
482.453	9374.75
482.557	9520.75
482.662	9616.75
482.767	9587.75
482.871	9513.75
482.976	9686.75
483.08	9802.75
483.185	9820.75
483.289	9828.75
483.394	9819.75
483.498	10021.75
483.603	9995.75
483.707	10056.75
483.811	9974.75
483.916	10123.75
484.02	10061.75
484.125	10381.75
484.229	10338.75
484.333	10598.75
484.438	10308.75
484.542	10501.75
484.647	10640.75
484.751	10840.75
484.855	10942.75
484.96	10951.75
485.064	11141.75
485.168	11023.75
485.273	11115.75
485.377	11149.75
485.481	11301.75
485.585	11430.75
485.69	11274.75
485.794	11353.75
485.898	11250.75
486.002	11416.75
486.107	11540.75
486.211	11406.75
486.315	11495.75
486.419	11494.75
486.524	11597.75
486.628	11442.75
486.732	11458.75
486.836	11520.75
486.94	11681.75
487.044	11589.75
487.148	11472.75
487.253	11313.75
487.357	11558.75
487.461	11680.75
487.565	11385.75
487.669	11525.75
487.773	11470.75
487.877	11668.75
487.981	11745.75
488.085	11598.75
488.189	11562.75
488.293	11725.75
488.397	12032.75
488.501	11572.75
488.605	11420.75
488.709	11506.75
488.813	11561.75
488.917	11424.75
489.021	11739.75
489.125	11858.75
489.229	11536.75
489.333	11782.75
489.437	11855.75
489.541	11862.75
489.645	11640.75
489.749	11641.75
489.853	11744.75
489.956	11907.75
490.06	11751.75
490.164	11871.75
490.268	11678.75
490.372	11734.75
490.476	11778.75
490.579	11853.75
490.683	12424.75
490.787	11909.75
490.891	11768.75
490.995	11929.75
491.098	11837.75
491.202	11841.75
491.306	11861.75
491.41	11728.75
491.513	11777.75
491.617	11709.75
491.721	11812.75
491.824	12171.75
491.928	11748.75
492.032	12103.75
492.136	11902.75
492.239	11966.75
492.343	11858.75
492.446	12416.75
492.55	11834.75
492.654	11783.75
492.757	11927.75
492.861	11881.75
492.965	11828.75
493.068	11830.75
493.172	12028.75
493.275	11804.75
493.379	11914.75
493.482	12032.75
493.586	12129.75
493.689	12130.75
493.793	12066.75
493.896	12101.75
494	12081.75
494.103	12143.75
494.207	12387.75
494.31	12460.75
494.414	12140.75
494.517	12065.75
494.621	11924.75
494.724	11790.75
494.828	11962.75
494.931	11743.75
495.034	11847.75
495.138	11998.75
495.241	11845.75
495.345	12527.75
495.448	12045.75
495.551	11773.75
495.655	11804.75
495.758	11674.75
495.861	11796.75
495.965	11745.75
496.068	11935.75
496.171	12003.75
496.274	11830.75
496.378	11953.75
496.481	11970.75
496.584	11913.75
496.687	12033.75
496.791	12142.75
496.894	12236.75
496.997	12180.75
497.1	12278.75
497.204	12404.75
497.307	12299.75
497.41	12789.75
497.513	13012.75
497.616	12843.75
497.719	12891.75
497.823	13164.75
497.926	13287.75
498.029	13527.75
498.132	13802.75
498.235	14110.75
498.338	14383.75
498.441	14562.75
498.544	14562.75
498.647	14562.75
498.75	14562.75
498.853	14562.75
498.956	14562.75
499.059	14562.75
499.163	14562.75
499.266	14562.75
499.369	14562.75
499.471	14562.75
499.574	14562.75
499.677	14562.75
499.78	14562.75
499.883	14562.75
499.986	14562.75
500.089	14562.75
500.192	14562.75
500.295	14562.75
500.398	14562.75
500.501	14562.75
500.604	14562.75
500.707	14562.75
500.809	14562.75
500.912	14562.75
501.015	14562.75
501.118	14562.75
501.221	14562.75
501.324	14562.75
501.426	14562.75
501.529	14562.75
501.632	14562.75
501.735	14562.75
501.837	14562.75
501.94	14562.75
502.043	14417.75
502.146	14014.75
502.248	13633.75
502.351	13319.75
502.454	13112.75
502.557	12917.75
502.659	12401.75
502.762	12265.75
502.865	12054.75
502.967	11699.75
503.07	11727.75
503.173	11390.75
503.275	11317.75
503.378	10964.75
503.48	11081.75
503.583	10996.75
503.686	10857.75
503.788	11186.75
503.891	10947.75
503.993	10979.75
504.096	10816.75
504.198	10899.75
504.301	10824.75
504.403	10880.75
504.506	10788.75
504.608	10484.75
504.711	10284.75
504.813	10242.75
504.916	9831.75
505.018	9646.75
505.121	9411.75
505.223	9449.75
505.326	9259.75
505.428	9242.75
505.531	9035.75
505.633	8927.75
505.735	8673.75
505.838	8778.75
505.94	8639.75
506.042	8654.75
506.145	8475.75
506.247	8583.75
506.35	8290.75
506.452	8368.75
506.554	8538.75
506.656	8285.75
506.759	8170.75
506.861	8159.75
506.963	8167.75
507.066	8166.75
507.168	8432.75
507.27	8104.75
507.372	7995.75
507.475	8076.75
507.577	8015.75
507.679	7869.75
507.781	7797.75
507.883	7816.75
507.986	7810.75
508.088	7664.75
508.19	7880.75
508.292	7748.75
508.394	7572.75
508.496	7769.75
508.598	7504.75
508.701	7578.75
508.803	7752.75
508.905	7566.75
509.007	7632.75
509.109	7765.75
509.211	7583.75
509.313	7357.75
509.415	7348.75
509.517	7508.75
509.619	7433.75
509.721	7405.75
509.823	7461.75
509.925	7635.75
510.027	7292.75
510.129	7451.75
510.231	7396.75
510.333	7279.75
510.435	7409.75
510.537	7429.75
510.639	7349.75
510.741	7367.75
510.843	7517.75
510.945	7247.75
511.047	7473.75
511.148	7449.75
511.25	7334.75
511.352	7286.75
511.454	7248.75
511.556	7409.75
511.658	7441.75
511.76	7456.75
511.861	7546.75
511.963	7189.75
512.065	7244.75
512.167	7379.75
512.268	7550.75
512.37	7495.75
512.472	7424.75
512.574	7472.75
512.676	7385.75
512.777	7426.75
512.879	7347.75
512.981	7316.75
513.082	7349.75
513.184	7536.75
513.286	8046.75
513.387	7661.75
513.489	7764.75
513.591	7593.75
513.692	7568.75
513.794	7656.75
513.896	7539.75
513.997	7594.75
514.099	7686.75
514.2	7620.75
514.302	7702.75
514.404	7731.75
514.505	7778.75
514.607	7915.75
514.708	7817.75
514.81	7948.75
514.911	7937.75
515.013	8147.75
515.114	8214.75
515.216	7912.75
515.317	8095.75
515.419	8179.75
515.52	8254.75
515.622	8202.75
515.723	8389.75
515.825	8561.75
515.926	8606.75
516.027	8534.75
516.129	8782.75
516.23	8857.75
516.332	9050.75
516.433	9236.75
516.534	9200.75
516.636	9250.75
516.737	9494.75
516.838	10727.75
516.94	10141.75
517.041	10076.75
517.142	10460.75
517.244	10533.75
517.345	10666.75
517.446	10699.75
517.547	10788.75
517.649	10787.75
517.75	10822.75
517.851	10693.75
517.952	10993.75
518.054	10720.75
518.155	10608.75
518.256	10100.75
518.357	10120.75
518.458	9971.75
518.56	9834.75
518.661	9736.75
518.762	9642.75
518.863	9620.75
518.964	9470.75
519.065	9290.75
519.166	9139.75
519.268	9128.75
519.369	9307.75
519.47	9004.75
519.571	8997.75
519.672	8902.75
519.773	8849.75
519.874	8863.75
519.975	8888.75
520.076	8630.75
520.177	8691.75
520.278	8716.75
520.379	8906.75
520.48	8558.75
520.581	8631.75
520.682	8527.75
520.783	8502.75
520.884	8600.75
520.985	8695.75
521.086	8546.75
521.187	8529.75
521.288	8412.75
521.389	8510.75
521.489	8317.75
521.59	8396.75
521.691	8455.75
521.792	8458.75
521.893	8576.75
521.994	8464.75
522.095	8317.75
522.195	8426.75
522.296	8382.75
522.397	8384.75
522.498	8284.75
522.599	8368.75
522.699	8337.75
522.8	8328.75
522.901	8412.75
523.002	8493.75
523.102	8501.75
523.203	8381.75
523.304	8709.75
523.405	8316.75
523.505	8398.75
523.606	8484.75
523.707	8389.75
523.807	8280.75
523.908	8363.75
524.009	8485.75
524.109	8372.75
524.21	8410.75
524.31	8477.75
524.411	8527.75
524.512	8453.75
524.612	8483.75
524.713	8577.75
524.813	8375.75
524.914	8614.75
525.014	12755.75
525.115	8609.75
525.216	8338.75
525.316	8389.75
525.417	8446.75
525.517	8351.75
525.618	8515.75
525.718	8312.75
525.819	8176.75
525.919	8456.75
526.019	8326.75
526.12	8242.75
526.22	8226.75
526.321	8333.75
526.421	8305.75
526.522	8379.75
526.622	8277.75
526.722	8352.75
526.823	8438.75
526.923	8458.75
527.023	8510.75
527.124	8268.75
527.224	8324.75
527.324	8345.75
527.425	8286.75
527.525	8205.75
527.625	8266.75
527.726	8313.75
527.826	8428.75
527.926	8374.75
528.026	8396.75
528.127	8399.75
528.227	8270.75
528.327	8293.75
528.427	8190.75
528.528	8342.75
528.628	8393.75
528.728	8319.75
528.828	8338.75
528.928	8314.75
529.029	8297.75
529.129	8205.75
529.229	8314.75
529.329	8209.75
529.429	8276.75
529.529	8363.75
529.629	8260.75
529.729	8061.75
529.829	8282.75
529.93	8122.75
530.03	8340.75
530.13	8298.75
530.23	8308.75
530.33	8208.75
530.43	8077.75
530.53	8209.75
530.63	8217.75
530.73	8118.75
530.83	8040.75
530.93	7920.75
531.03	7975.75
531.13	8279.75
531.23	8106.75
531.33	8090.75
531.429	8244.75
531.529	8025.75
531.629	7902.75
531.729	7926.75
531.829	7998.75
531.929	7893.75
532.029	7832.75
532.129	7812.75
532.229	7984.75
532.328	7815.75
532.428	8010.75
532.528	7688.75
532.628	7647.75
532.728	7752.75
532.827	7654.75
532.927	7777.75
533.027	7650.75
533.127	7780.75
533.227	7705.75
533.326	7623.75
533.426	7635.75
533.526	7693.75
533.625	7792.75
533.725	7905.75
533.825	7645.75
533.924	7479.75
534.024	7412.75
534.124	7291.75
534.223	7452.75
534.323	7861.75
534.423	7445.75
534.522	7314.75
534.622	7255.75
534.722	7297.75
534.821	7284.75
534.921	7174.75
535.02	7175.75
535.12	7187.75
535.219	7218.75
535.319	7213.75
535.419	7160.75
535.518	7001.75
535.618	7001.75
535.717	7130.75
535.817	6846.75
