Data from 14g_HRC06701__0__183.txt Node

Date: Thu Apr 18 01:57:54 CDT 2024
User: Estudiantes 2
Spectrometer: HR+C0670
Trigger mode: 4
Integration Time (sec): 1.000000E0
Scans to average: 1
Electric dark correction enabled: true
Nonlinearity correction enabled: false
Boxcar width: 0
XAxis mode: Wavelengths
Number of Pixels in Spectrum: 2048
>>>>>Begin Spectral Data<<<<<
407.81	-132.44
407.921	-132.44
408.032	-132.44
408.143	-88.44
408.254	-149.44
408.365	23.56
408.476	246.56
408.587	-39.44
408.699	-16.44
408.81	12.56
408.921	-26.44
409.032	-54.44
409.143	44.56
409.254	56.56
409.365	65.56
409.476	-24.44
409.587	38.56
409.698	43.56
409.809	70.56
409.92	-14.44
410.031	-14.44
410.142	61.56
410.253	51.56
410.364	55.56
410.475	799.56
410.585	4077.56
410.696	4510.56
410.807	4385.56
410.918	4317.56
411.029	4538.56
411.14	4381.56
411.251	4450.56
411.362	4487.56
411.472	4412.56
411.583	4388.56
411.694	4518.56
411.805	4494.56
411.916	4454.56
412.026	4561.56
412.137	4500.56
412.248	4531.56
412.359	4483.56
412.47	4486.56
412.58	4355.56
412.691	4517.56
412.802	4413.56
412.912	4338.56
413.023	4320.56
413.134	4370.56
413.245	4431.56
413.355	4343.56
413.466	4366.56
413.577	4415.56
413.687	4447.56
413.798	4315.56
413.909	4402.56
414.019	4425.56
414.13	4437.56
414.24	4405.56
414.351	4417.56
414.462	4622.56
414.572	4494.56
414.683	4428.56
414.793	4457.56
414.904	4656.56
415.014	4460.56
415.125	4357.56
415.235	4398.56
415.346	4740.56
415.456	4560.56
415.567	4455.56
415.677	4416.56
415.788	4456.56
415.898	4284.56
416.009	4373.56
416.119	4493.56
416.23	4417.56
416.34	4372.56
416.45	4412.56
416.561	5116.56
416.671	4444.56
416.782	4426.56
416.892	4402.56
417.002	4428.56
417.113	4589.56
417.223	4379.56
417.333	4364.56
417.444	4540.56
417.554	4608.56
417.664	4491.56
417.775	4466.56
417.885	4619.56
417.995	4555.56
418.106	4859.56
418.216	4630.56
418.326	4749.56
418.436	4802.56
418.547	4886.56
418.657	4804.56
418.767	5018.56
418.877	4987.56
418.987	4966.56
419.098	4889.56
419.208	5043.56
419.318	5119.56
419.428	5119.56
419.538	4971.56
419.648	5084.56
419.759	4986.56
419.869	4960.56
419.979	4933.56
420.089	5000.56
420.199	4984.56
420.309	5027.56
420.419	5035.56
420.529	5040.56
420.639	5534.56
420.749	5097.56
420.859	5150.56
420.969	5246.56
421.079	5439.56
421.189	5155.56
421.299	5088.56
421.409	5207.56
421.519	5205.56
421.629	5272.56
421.739	5201.56
421.849	5255.56
421.959	5226.56
422.069	5302.56
422.179	5292.56
422.289	5299.56
422.399	5440.56
422.509	5607.56
422.619	7997.56
422.729	5838.56
422.838	5628.56
422.948	5678.56
423.058	5678.56
423.168	5681.56
423.278	5703.56
423.388	5774.56
423.498	5992.56
423.607	5998.56
423.717	6201.56
423.827	6231.56
423.937	6200.56
424.046	6025.56
424.156	6273.56
424.266	6108.56
424.376	6413.56
424.485	6212.56
424.595	6284.56
424.705	6221.56
424.815	6302.56
424.924	6716.56
425.034	6287.56
425.144	6404.56
425.253	6315.56
425.363	6604.56
425.473	6538.56
425.582	6315.56
425.692	6514.56
425.801	6368.56
425.911	6663.56
426.021	6603.56
426.13	6748.56
426.24	6831.56
426.349	6758.56
426.459	6784.56
426.568	6628.56
426.678	6863.56
426.787	6896.56
426.897	6825.56
427.006	6837.56
427.116	7049.56
427.225	6866.56
427.335	7206.56
427.444	7111.56
427.554	7035.56
427.663	7142.56
427.773	7124.56
427.882	7273.56
427.992	7291.56
428.101	7252.56
428.21	7217.56
428.32	7416.56
428.429	7302.56
428.539	7670.56
428.648	7454.56
428.757	7474.56
428.867	7629.56
428.976	7739.56
429.085	7713.56
429.195	7582.56
429.304	7671.56
429.413	7771.56
429.523	7683.56
429.632	7791.56
429.741	7746.56
429.85	7690.56
429.96	8027.56
430.069	7774.56
430.178	7802.56
430.287	8195.56
430.397	7983.56
430.506	8012.56
430.615	7988.56
430.724	8189.56
430.833	8188.56
430.943	8197.56
431.052	8213.56
431.161	8216.56
431.27	8436.56
431.379	8388.56
431.488	8698.56
431.597	8472.56
431.706	8679.56
431.816	8535.56
431.925	8528.56
432.034	8525.56
432.143	8592.56
432.252	8534.56
432.361	8650.56
432.47	8577.56
432.579	8688.56
432.688	8462.56
432.797	8636.56
432.906	8509.56
433.015	8742.56
433.124	8977.56
433.233	8737.56
433.342	8691.56
433.451	8707.56
433.56	8685.56
433.669	8658.56
433.778	8743.56
433.886	8949.56
433.995	8779.56
434.104	9016.56
434.213	8978.56
434.322	9005.56
434.431	9351.56
434.54	9395.56
434.649	9490.56
434.757	9456.56
434.866	9291.56
434.975	9271.56
435.084	9146.56
435.193	9139.56
435.301	9227.56
435.41	9148.56
435.519	9230.56
435.628	8482.56
435.737	8492.56
435.845	8187.56
435.954	8111.56
436.063	8269.56
436.171	8322.56
436.28	8259.56
436.389	8432.56
436.498	7991.56
436.606	8175.56
436.715	8332.56
436.823	7949.56
436.932	7885.56
437.041	7860.56
437.149	7863.56
437.258	7735.56
437.367	7610.56
437.475	7724.56
437.584	7845.56
437.692	7601.56
437.801	9235.56
437.91	7665.56
438.018	7560.56
438.127	7413.56
438.235	7531.56
438.344	7572.56
438.452	7537.56
438.561	7439.56
438.669	7536.56
438.778	7396.56
438.886	7364.56
438.995	7260.56
439.103	7452.56
439.212	7516.56
439.32	7448.56
439.428	7425.56
439.537	7388.56
439.645	7549.56
439.754	7499.56
439.862	7227.56
439.97	7448.56
440.079	7529.56
440.187	7522.56
440.295	7686.56
440.404	7659.56
440.512	7595.56
440.62	7727.56
440.729	7819.56
440.837	7794.56
440.945	8435.56
441.054	7977.56
441.162	7923.56
441.27	8243.56
441.378	8129.56
441.487	8189.56
441.595	8587.56
441.703	8360.56
441.811	8146.56
441.92	8208.56
442.028	7927.56
442.136	7927.56
442.244	7975.56
442.352	7876.56
442.461	7841.56
442.569	7882.56
442.677	7908.56
442.785	7971.56
442.893	7827.56
443.001	7812.56
443.109	7755.56
443.217	7828.56
443.325	7784.56
443.434	8503.56
443.542	8250.56
443.65	8035.56
443.758	8225.56
443.866	8111.56
443.974	8509.56
444.082	8445.56
444.19	8659.56
444.298	8700.56
444.406	8850.56
444.514	9035.56
444.622	8863.56
444.73	9085.56
444.838	8851.56
444.946	8884.56
445.054	8720.56
445.161	8545.56
445.269	8431.56
445.377	8430.56
445.485	8473.56
445.593	8189.56
445.701	8276.56
445.809	8297.56
445.917	8123.56
446.025	8001.56
446.132	8209.56
446.24	8169.56
446.348	8058.56
446.456	8020.56
446.564	8011.56
446.671	8069.56
446.779	7914.56
446.887	7991.56
446.995	7809.56
447.102	8015.56
447.21	8012.56
447.318	7892.56
447.426	7818.56
447.533	8175.56
447.641	8999.56
447.749	7938.56
447.856	7925.56
447.964	7889.56
448.072	8037.56
448.179	7848.56
448.287	8063.56
448.395	8019.56
448.502	7893.56
448.61	7993.56
448.718	8018.56
448.825	8052.56
448.933	7971.56
449.04	8029.56
449.148	8026.56
449.256	8083.56
449.363	8200.56
449.471	8251.56
449.578	8299.56
449.686	8278.56
449.793	8442.56
449.901	8324.56
450.008	8488.56
450.116	8609.56
450.223	8448.56
450.331	8701.56
450.438	8771.56
450.546	8855.56
450.653	8868.56
450.76	9021.56
450.868	8906.56
450.975	9126.56
451.083	8997.56
451.19	9167.56
451.297	8902.56
451.405	9093.56
451.512	9078.56
451.619	9384.56
451.727	9429.56
451.834	9315.56
451.941	9131.56
452.049	9359.56
452.156	9402.56
452.263	9387.56
452.371	9533.56
452.478	9587.56
452.585	9662.56
452.692	9543.56
452.8	9668.56
452.907	9657.56
453.014	9735.56
453.121	9766.56
453.229	9730.56
453.336	9802.56
453.443	9954.56
453.55	9912.56
453.657	9844.56
453.765	10052.56
453.872	9936.56
453.979	10011.56
454.086	10056.56
454.193	10166.56
454.3	9964.56
454.407	10281.56
454.514	10310.56
454.621	10111.56
454.729	10064.56
454.836	10180.56
454.943	10242.56
455.05	10262.56
455.157	10424.56
455.264	10346.56
455.371	10499.56
455.478	10351.56
455.585	10852.56
455.692	10615.56
455.799	10949.56
455.906	10595.56
456.013	10487.56
456.12	10604.56
456.227	10750.56
456.334	10850.56
456.44	10987.56
456.547	11051.56
456.654	10831.56
456.761	11177.56
456.868	11163.56
456.975	11247.56
457.082	11095.56
457.189	11130.56
457.296	11203.56
457.402	11309.56
457.509	11139.56
457.616	11499.56
457.723	11802.56
457.83	11586.56
457.936	11707.56
458.043	12227.56
458.15	11802.56
458.257	12055.56
458.363	12254.56
458.47	12305.56
458.577	12472.56
458.684	12605.56
458.79	12887.56
458.897	13058.56
459.004	13353.56
459.11	13038.56
459.217	13154.56
459.324	13412.56
459.43	13836.56
459.537	13862.56
459.644	13811.56
459.75	14140.56
459.857	14363.56
459.964	14217.56
460.07	14189.56
460.177	14552.56
460.283	14552.56
460.39	14552.56
460.496	14514.56
460.603	14552.56
460.71	14552.56
460.816	14552.56
460.923	14474.56
461.029	14368.56
461.136	14552.56
461.242	14552.56
461.349	14552.56
461.455	14552.56
461.562	14552.56
461.668	14552.56
461.774	14552.56
461.881	14552.56
461.987	14552.56
462.094	14552.56
462.2	14552.56
462.307	14552.56
462.413	14552.56
462.519	14552.56
462.626	14552.56
462.732	14552.56
462.838	14552.56
462.945	14552.56
463.051	14552.56
463.157	14552.56
463.264	14552.56
463.37	14552.56
463.476	14552.56
463.583	14552.56
463.689	14552.56
463.795	14552.56
463.901	14552.56
464.008	14552.56
464.114	14552.56
464.22	14552.56
464.326	14552.56
464.433	14552.56
464.539	14552.56
464.645	14552.56
464.751	14552.56
464.857	14552.56
464.963	14138.56
465.07	13966.56
465.176	13510.56
465.282	13252.56
465.388	12946.56
465.494	12597.56
465.6	12490.56
465.706	11989.56
465.812	12174.56
465.918	12004.56
466.024	11647.56
466.131	11615.56
466.237	11523.56
466.343	11263.56
466.449	11022.56
466.555	10954.56
466.661	10817.56
466.767	10805.56
466.873	10691.56
466.979	10903.56
467.085	10539.56
467.191	10671.56
467.296	10579.56
467.402	10543.56
467.508	10447.56
467.614	10335.56
467.72	10287.56
467.826	9958.56
467.932	9991.56
468.038	9933.56
468.144	9736.56
468.25	9574.56
468.355	9721.56
468.461	9619.56
468.567	9528.56
468.673	9716.56
468.779	9623.56
468.885	9483.56
468.99	9509.56
469.096	9586.56
469.202	9662.56
469.308	9649.56
469.413	9800.56
469.519	9622.56
469.625	9635.56
469.731	9658.56
469.836	9695.56
469.942	9912.56
470.048	9701.56
470.153	9635.56
470.259	9718.56
470.365	9775.56
470.47	9766.56
470.576	9534.56
470.682	9580.56
470.787	9569.56
470.893	9315.56
470.999	9360.56
471.104	9363.56
471.21	8997.56
471.315	8915.56
471.421	8957.56
471.527	8942.56
471.632	8861.56
471.738	8698.56
471.843	8532.56
471.949	8604.56
472.054	8560.56
472.16	8581.56
472.265	8310.56
472.371	8405.56
472.476	8443.56
472.582	8427.56
472.687	8138.56
472.793	8257.56
472.898	8149.56
473.003	8180.56
473.109	8121.56
473.214	7979.56
473.32	8031.56
473.425	8134.56
473.53	8128.56
473.636	7924.56
473.741	7904.56
473.847	7904.56
473.952	8050.56
474.057	8046.56
474.163	8077.56
474.268	7888.56
474.373	7974.56
474.478	7943.56
474.584	7989.56
474.689	7974.56
474.794	7976.56
474.9	8203.56
475.005	7857.56
475.11	8167.56
475.215	7898.56
475.321	7948.56
475.426	8082.56
475.531	8111.56
475.636	7911.56
475.741	7967.56
475.846	8231.56
475.952	8286.56
476.057	8074.56
476.162	8207.56
476.267	8442.56
476.372	8449.56
476.477	8127.56
476.582	8479.56
476.687	8228.56
476.793	8309.56
476.898	8487.56
477.003	8366.56
477.108	8309.56
477.213	8378.56
477.318	8493.56
477.423	8654.56
477.528	8720.56
477.633	8820.56
477.738	8751.56
477.843	8706.56
477.948	8974.56
478.053	8889.56
478.158	9022.56
478.263	9228.56
478.368	9220.56
478.473	9451.56
478.578	9396.56
478.682	9182.56
478.787	9404.56
478.892	9434.56
478.997	9582.56
479.102	9541.56
479.207	9470.56
479.312	9734.56
479.417	9674.56
479.521	9587.56
479.626	9758.56
479.731	9721.56
479.836	9731.56
479.941	10004.56
480.045	10027.56
480.15	10203.56
480.255	10223.56
480.36	10286.56
480.465	10357.56
480.569	10289.56
480.674	10093.56
480.779	9915.56
480.883	9981.56
480.988	10088.56
481.093	9843.56
481.197	9797.56
481.302	9933.56
481.407	9917.56
481.511	11180.56
481.616	9800.56
481.721	9879.56
481.825	10031.56
481.93	9826.56
482.035	10011.56
482.139	10075.56
482.244	10018.56
482.348	10150.56
482.453	9958.56
482.557	10292.56
482.662	10082.56
482.767	10098.56
482.871	10099.56
482.976	10334.56
483.08	10516.56
483.185	10537.56
483.289	10394.56
483.394	10402.56
483.498	10554.56
483.603	10527.56
483.707	10747.56
483.811	10818.56
483.916	10916.56
484.02	10914.56
484.125	11112.56
484.229	11066.56
484.333	11178.56
484.438	11044.56
484.542	11117.56
484.647	11248.56
484.751	11572.56
484.855	11455.56
484.96	11458.56
485.064	11617.56
485.168	11749.56
485.273	11756.56
485.377	11883.56
485.481	12062.56
485.585	11930.56
485.69	12106.56
485.794	12049.56
485.898	12134.56
486.002	12159.56
486.107	12282.56
486.211	12125.56
486.315	12102.56
486.419	12367.56
486.524	12300.56
486.628	12316.56
486.732	12340.56
486.836	12142.56
486.94	12378.56
487.044	12346.56
487.148	12309.56
487.253	12273.56
487.357	12509.56
487.461	12582.56
487.565	12314.56
487.669	12296.56
487.773	12267.56
487.877	12455.56
487.981	12433.56
488.085	12373.56
488.189	12342.56
488.293	12587.56
488.397	12750.56
488.501	12403.56
488.605	12315.56
488.709	12354.56
488.813	12426.56
488.917	12309.56
489.021	12377.56
489.125	12534.56
489.229	12302.56
489.333	12433.56
489.437	12646.56
489.541	12506.56
489.645	12466.56
489.749	12698.56
489.853	12741.56
489.956	12433.56
490.06	12611.56
490.164	12690.56
490.268	12579.56
490.372	12692.56
490.476	12543.56
490.579	12502.56
490.683	13276.56
490.787	12636.56
490.891	12591.56
490.995	12593.56
491.098	12572.56
491.202	12623.56
491.306	12481.56
491.41	12614.56
491.513	12571.56
491.617	12639.56
491.721	12853.56
491.824	12821.56
491.928	12709.56
492.032	12871.56
492.136	12747.56
492.239	12645.56
492.343	12607.56
492.446	13105.56
492.55	12696.56
492.654	12597.56
492.757	12527.56
492.861	12668.56
492.965	12706.56
493.068	12742.56
493.172	12756.56
493.275	12703.56
493.379	12654.56
493.482	12764.56
493.586	12875.56
493.689	12892.56
493.793	12812.56
493.896	12897.56
494	12806.56
494.103	12739.56
494.207	13160.56
494.31	13093.56
494.414	13102.56
494.517	12753.56
494.621	12587.56
494.724	12611.56
494.828	12585.56
494.931	12590.56
495.034	12611.56
495.138	12617.56
495.241	12561.56
495.345	13319.56
495.448	12617.56
495.551	12559.56
495.655	12526.56
495.758	12542.56
495.861	12535.56
495.965	12516.56
496.068	12545.56
496.171	12790.56
496.274	12626.56
496.378	12589.56
496.481	12730.56
496.584	12887.56
496.687	12853.56
496.791	12819.56
496.894	13026.56
496.997	13006.56
497.1	12969.56
497.204	13166.56
497.307	13102.56
497.41	13589.56
497.513	13568.56
497.616	13404.56
497.719	13613.56
497.823	13929.56
497.926	13909.56
498.029	14064.56
498.132	14211.56
498.235	14552.56
498.338	14552.56
498.441	14552.56
498.544	14552.56
498.647	14552.56
498.75	14552.56
498.853	14552.56
498.956	14552.56
499.059	14552.56
499.163	14552.56
499.266	14552.56
499.369	14552.56
499.471	14552.56
499.574	14552.56
499.677	14552.56
499.78	14552.56
499.883	14552.56
499.986	14552.56
500.089	14552.56
500.192	14552.56
500.295	14552.56
500.398	14552.56
500.501	14552.56
500.604	14552.56
500.707	14552.56
500.809	14552.56
500.912	14552.56
501.015	14552.56
501.118	14552.56
501.221	14552.56
501.324	14552.56
501.426	14552.56
501.529	14552.56
501.632	14552.56
501.735	14552.56
501.837	14552.56
501.94	14552.56
502.043	14552.56
502.146	14552.56
502.248	14238.56
502.351	13843.56
502.454	13666.56
502.557	13441.56
502.659	13195.56
502.762	12736.56
502.865	12587.56
502.967	12319.56
503.07	12146.56
503.173	12084.56
503.275	11875.56
503.378	11782.56
503.48	11646.56
503.583	11719.56
503.686	11435.56
503.788	11667.56
503.891	11391.56
503.993	11566.56
504.096	11443.56
504.198	11426.56
504.301	11315.56
504.403	11446.56
504.506	11254.56
504.608	11032.56
504.711	10825.56
504.813	10810.56
504.916	10489.56
505.018	10294.56
505.121	10014.56
505.223	9972.56
505.326	9836.56
505.428	9830.56
505.531	9745.56
505.633	9523.56
505.735	9400.56
505.838	9347.56
505.94	9342.56
506.042	9070.56
506.145	9196.56
506.247	9215.56
506.35	9008.56
506.452	8908.56
506.554	9125.56
506.656	8931.56
506.759	8817.56
506.861	8891.56
506.963	8661.56
507.066	8788.56
507.168	8965.56
507.27	8614.56
507.372	8519.56
507.475	8588.56
507.577	8480.56
507.679	8510.56
507.781	8442.56
507.883	8415.56
507.986	8365.56
508.088	8303.56
508.19	8317.56
508.292	8397.56
508.394	8254.56
508.496	8299.56
508.598	8271.56
508.701	8221.56
508.803	8262.56
508.905	8135.56
509.007	8088.56
509.109	8316.56
509.211	8193.56
509.313	8176.56
509.415	8063.56
509.517	8124.56
509.619	7970.56
509.721	8134.56
509.823	8078.56
509.925	8123.56
510.027	7920.56
510.129	7962.56
510.231	8140.56
510.333	8018.56
510.435	7975.56
510.537	8018.56
510.639	8085.56
510.741	7834.56
510.843	8139.56
510.945	7887.56
511.047	7954.56
511.148	8081.56
511.25	7896.56
511.352	8043.56
511.454	7886.56
511.556	8160.56
511.658	8066.56
511.76	8084.56
511.861	8256.56
511.963	7892.56
512.065	7902.56
512.167	7942.56
512.268	8353.56
512.37	8069.56
512.472	8099.56
512.574	8103.56
512.676	8040.56
512.777	8020.56
512.879	7964.56
512.981	8103.56
513.082	8040.56
513.184	8149.56
513.286	8579.56
513.387	8259.56
513.489	8404.56
513.591	8204.56
513.692	8255.56
513.794	8385.56
513.896	8096.56
513.997	8194.56
514.099	8214.56
514.2	8278.56
514.302	8384.56
514.404	8412.56
514.505	8478.56
514.607	8359.56
514.708	8407.56
514.81	8663.56
514.911	8595.56
515.013	8668.56
515.114	8751.56
515.216	8672.56
515.317	8770.56
515.419	8757.56
515.52	8949.56
515.622	8928.56
515.723	8966.56
515.825	9330.56
515.926	9143.56
516.027	9217.56
516.129	9477.56
516.23	9571.56
516.332	9659.56
516.433	9956.56
516.534	9712.56
516.636	9847.56
516.737	10135.56
516.838	11274.56
516.94	10514.56
517.041	10626.56
517.142	10942.56
517.244	11015.56
517.345	10975.56
517.446	11130.56
517.547	11330.56
517.649	11115.56
517.75	11142.56
517.851	11262.56
517.952	11285.56
518.054	11075.56
518.155	11233.56
518.256	10827.56
518.357	10914.56
518.458	10657.56
518.56	10503.56
518.661	10448.56
518.762	10293.56
518.863	10313.56
518.964	10204.56
519.065	10154.56
519.166	9917.56
519.268	9811.56
519.369	10105.56
519.47	9708.56
519.571	9745.56
519.672	9647.56
519.773	9538.56
519.874	9639.56
519.975	9662.56
520.076	9565.56
520.177	9353.56
520.278	9453.56
520.379	9423.56
520.48	9302.56
520.581	9224.56
520.682	9326.56
520.783	9281.56
520.884	9425.56
520.985	9308.56
521.086	9387.56
521.187	9308.56
521.288	9119.56
521.389	9402.56
521.489	9148.56
521.59	9038.56
521.691	9239.56
521.792	9151.56
521.893	9331.56
521.994	9329.56
522.095	9210.56
522.195	9303.56
522.296	9203.56
522.397	9288.56
522.498	9171.56
522.599	8952.56
522.699	9225.56
522.8	9102.56
522.901	9151.56
523.002	9215.56
523.102	9285.56
523.203	9167.56
523.304	9410.56
523.405	9233.56
523.505	9274.56
523.606	9310.56
523.707	9153.56
523.807	9165.56
523.908	9238.56
524.009	9353.56
524.109	9200.56
524.21	9134.56
524.31	9221.56
524.411	9379.56
524.512	9286.56
524.612	9246.56
524.713	9454.56
524.813	9233.56
524.914	9552.56
525.014	13559.56
525.115	9511.56
525.216	9162.56
525.316	9245.56
525.417	9247.56
525.517	9231.56
525.618	9208.56
525.718	9161.56
525.819	9226.56
525.919	9206.56
526.019	9245.56
526.12	9291.56
526.22	9273.56
526.321	9194.56
526.421	9175.56
526.522	9115.56
526.622	9055.56
526.722	9193.56
526.823	9060.56
526.923	9312.56
527.023	9271.56
527.124	9047.56
527.224	9149.56
527.324	9161.56
527.425	9174.56
527.525	9031.56
527.625	9131.56
527.726	9138.56
527.826	9191.56
527.926	9046.56
528.026	9209.56
528.127	9067.56
528.227	9237.56
528.327	9035.56
528.427	9150.56
528.528	9062.56
528.628	9177.56
528.728	9017.56
528.828	9170.56
528.928	9189.56
529.029	9027.56
529.129	9037.56
529.229	9083.56
529.329	9140.56
529.429	9124.56
529.529	9133.56
529.629	9165.56
529.729	8928.56
529.829	9181.56
529.93	9004.56
530.03	8964.56
530.13	9063.56
530.23	8910.56
530.33	9057.56
530.43	8933.56
530.53	9039.56
530.63	8837.56
530.73	8798.56
530.83	8726.56
530.93	8817.56
531.03	8796.56
531.13	9002.56
531.23	8772.56
531.33	8753.56
531.429	8890.56
531.529	8715.56
531.629	8817.56
531.729	8675.56
531.829	8754.56
531.929	8567.56
532.029	8745.56
532.129	8732.56
532.229	8678.56
532.328	8637.56
532.428	8731.56
532.528	8489.56
532.628	8479.56
532.728	8503.56
532.827	8557.56
532.927	8581.56
533.027	8463.56
533.127	8634.56
533.227	8556.56
533.326	8416.56
533.426	8488.56
533.526	8390.56
533.625	8474.56
533.725	8774.56
533.825	8392.56
533.924	8230.56
534.024	8066.56
534.124	8178.56
534.223	8251.56
534.323	8519.56
534.423	8286.56
534.522	8138.56
534.622	8015.56
534.722	8079.56
534.821	7963.56
534.921	7999.56
535.02	7969.56
535.12	7956.56
535.219	7880.56
535.319	7997.56
535.419	7830.56
535.518	7718.56
