Data from 14g_HRC06701__56__239.txt Node

Date: Thu Apr 18 01:58:50 CDT 2024
User: Estudiantes 2
Spectrometer: HR+C0670
Trigger mode: 4
Integration Time (sec): 1.000000E0
Scans to average: 1
Electric dark correction enabled: true
Nonlinearity correction enabled: false
Boxcar width: 0
XAxis mode: Wavelengths
Number of Pixels in Spectrum: 2048
>>>>>Begin Spectral Data<<<<<
407.81	-119.06
407.921	-119.06
408.032	-119.06
408.143	-107.06
408.254	-141.06
408.365	35.94
408.476	260.94
408.587	-17.06
408.699	-21.06
408.81	7.94
408.921	-53.06
409.032	-49.06
409.143	75.94
409.254	15.94
409.365	91.94
409.476	-38.06
409.587	22.94
409.698	33.94
409.809	59.94
409.92	-14.06
410.031	-31.06
410.142	56.94
410.253	19.94
410.364	45.94
410.475	262.94
410.585	1508.94
410.696	1669.94
410.807	1597.94
410.918	1600.94
411.029	1664.94
411.14	1592.94
411.251	1580.94
411.362	1708.94
411.472	1707.94
411.583	1655.94
411.694	1778.94
411.805	1634.94
411.916	1705.94
412.026	1752.94
412.137	1689.94
412.248	1616.94
412.359	1708.94
412.47	1581.94
412.58	1553.94
412.691	1649.94
412.802	1698.94
412.912	1636.94
413.023	1669.94
413.134	1675.94
413.245	1682.94
413.355	1566.94
413.466	1617.94
413.577	1584.94
413.687	1669.94
413.798	1563.94
413.909	1698.94
414.019	1629.94
414.13	1696.94
414.24	1686.94
414.351	1666.94
414.462	1828.94
414.572	1780.94
414.683	1700.94
414.793	1587.94
414.904	1928.94
415.014	1579.94
415.125	1583.94
415.235	1715.94
415.346	1776.94
415.456	1690.94
415.567	1632.94
415.677	1655.94
415.788	1667.94
415.898	1613.94
416.009	1606.94
416.119	1660.94
416.23	1644.94
416.34	1639.94
416.45	1626.94
416.561	2464.94
416.671	1747.94
416.782	1570.94
416.892	1607.94
417.002	1716.94
417.113	1798.94
417.223	1676.94
417.333	1638.94
417.444	1730.94
417.554	1735.94
417.664	1751.94
417.775	1683.94
417.885	1730.94
417.995	1744.94
418.106	1946.94
418.216	1874.94
418.326	1790.94
418.436	1827.94
418.547	1815.94
418.657	1805.94
418.767	1927.94
418.877	1904.94
418.987	1816.94
419.098	1841.94
419.208	1895.94
419.318	1930.94
419.428	1963.94
419.538	1833.94
419.648	1889.94
419.759	1889.94
419.869	1934.94
419.979	1910.94
420.089	1863.94
420.199	1843.94
420.309	1937.94
420.419	1959.94
420.529	1839.94
420.639	2384.94
420.749	1942.94
420.859	2042.94
420.969	2033.94
421.079	2195.94
421.189	1992.94
421.299	1915.94
421.409	1905.94
421.519	2015.94
421.629	2036.94
421.739	2015.94
421.849	1955.94
421.959	1929.94
422.069	2074.94
422.179	2006.94
422.289	1961.94
422.399	2146.94
422.509	2132.94
422.619	4682.94
422.729	2315.94
422.838	2099.94
422.948	2123.94
423.058	2080.94
423.168	2170.94
423.278	2201.94
423.388	2182.94
423.498	2372.94
423.607	2184.94
423.717	2505.94
423.827	2585.94
423.937	2296.94
424.046	2330.94
424.156	2446.94
424.266	2326.94
424.376	2537.94
424.485	2440.94
424.595	2308.94
424.705	2305.94
424.815	2364.94
424.924	2865.94
425.034	2386.94
425.144	2284.94
425.253	2417.94
425.363	2411.94
425.473	2489.94
425.582	2311.94
425.692	2392.94
425.801	2378.94
425.911	2569.94
426.021	2525.94
426.13	2600.94
426.24	2630.94
426.349	2608.94
426.459	2558.94
426.568	2454.94
426.678	2628.94
426.787	2534.94
426.897	2542.94
427.006	2582.94
427.116	2595.94
427.225	2554.94
427.335	2822.94
427.444	2651.94
427.554	2643.94
427.663	2663.94
427.773	2664.94
427.882	2701.94
427.992	2701.94
428.101	2708.94
428.21	2692.94
428.32	2775.94
428.429	2664.94
428.539	2998.94
428.648	2705.94
428.757	2807.94
428.867	2850.94
428.976	2906.94
429.085	2830.94
429.195	2800.94
429.304	2790.94
429.413	2878.94
429.523	2931.94
429.632	2858.94
429.741	2856.94
429.85	2808.94
429.96	2995.94
430.069	2871.94
430.178	2860.94
430.287	3170.94
430.397	2929.94
430.506	2871.94
430.615	2983.94
430.724	2961.94
430.833	2943.94
430.943	3000.94
431.052	2995.94
431.161	2910.94
431.27	3075.94
431.379	3106.94
431.488	3194.94
431.597	3224.94
431.706	3236.94
431.816	3114.94
431.925	3169.94
432.034	3181.94
432.143	3123.94
432.252	3126.94
432.361	3240.94
432.47	3197.94
432.579	3087.94
432.688	3124.94
432.797	3205.94
432.906	3064.94
433.015	3246.94
433.124	3578.94
433.233	3174.94
433.342	3169.94
433.451	3243.94
433.56	3172.94
433.669	3138.94
433.778	3173.94
433.886	3264.94
433.995	3172.94
434.104	3514.94
434.213	3296.94
434.322	3331.94
434.431	3435.94
434.54	3492.94
434.649	3603.94
434.757	3494.94
434.866	3502.94
434.975	3535.94
435.084	3452.94
435.193	3391.94
435.301	3438.94
435.41	3584.94
435.519	3674.94
435.628	3121.94
435.737	3014.94
435.845	3079.94
435.954	2985.94
436.063	3034.94
436.171	3033.94
436.28	3087.94
436.389	3102.94
436.498	2998.94
436.606	3072.94
436.715	3138.94
436.823	2934.94
436.932	2924.94
437.041	2891.94
437.149	2906.94
437.258	2868.94
437.367	2824.94
437.475	2762.94
437.584	3094.94
437.692	2841.94
437.801	4319.94
437.91	2875.94
438.018	2743.94
438.127	2658.94
438.235	2859.94
438.344	2766.94
438.452	2813.94
438.561	2711.94
438.669	2705.94
438.778	2699.94
438.886	2684.94
438.995	2639.94
439.103	2725.94
439.212	2694.94
439.32	2679.94
439.428	2760.94
439.537	2796.94
439.645	2842.94
439.754	2831.94
439.862	2655.94
439.97	2761.94
440.079	2782.94
440.187	2756.94
440.295	2870.94
440.404	2806.94
440.512	2861.94
440.62	2897.94
440.729	2918.94
440.837	2973.94
440.945	3603.94
441.054	3043.94
441.162	2907.94
441.27	3074.94
441.378	3020.94
441.487	3055.94
441.595	3475.94
441.703	3086.94
441.811	2982.94
441.92	3022.94
442.028	2841.94
442.136	3018.94
442.244	2970.94
442.352	2916.94
442.461	2799.94
442.569	2880.94
442.677	2899.94
442.785	2929.94
442.893	2924.94
443.001	2845.94
443.109	2810.94
443.217	2847.94
443.325	2878.94
443.434	3398.94
443.542	3255.94
443.65	2961.94
443.758	3031.94
443.866	2927.94
443.974	3362.94
444.082	3137.94
444.19	3159.94
444.298	3239.94
444.406	3310.94
444.514	3315.94
444.622	3438.94
444.73	3427.94
444.838	3362.94
444.946	3387.94
445.054	3145.94
445.161	3119.94
445.269	3095.94
445.377	3154.94
445.485	3074.94
445.593	2978.94
445.701	3191.94
445.809	3052.94
445.917	2958.94
446.025	2928.94
446.132	3139.94
446.24	3012.94
446.348	2944.94
446.456	2876.94
446.564	2871.94
446.671	2909.94
446.779	2862.94
446.887	2843.94
446.995	2890.94
447.102	2980.94
447.21	2976.94
447.318	2935.94
447.426	2866.94
447.533	3254.94
447.641	4133.94
447.749	2966.94
447.856	2974.94
447.964	2876.94
448.072	2961.94
448.179	2893.94
448.287	2932.94
448.395	2959.94
448.502	2889.94
448.61	2945.94
448.718	2922.94
448.825	2972.94
448.933	2993.94
449.04	2937.94
449.148	2999.94
449.256	2959.94
449.363	2982.94
449.471	3031.94
449.578	3103.94
449.686	3003.94
449.793	3177.94
449.901	3082.94
450.008	3116.94
450.116	3140.94
450.223	3152.94
450.331	3323.94
450.438	3117.94
450.546	3281.94
450.653	3469.94
450.76	3375.94
450.868	3291.94
450.975	3586.94
451.083	3358.94
451.19	3426.94
451.297	3372.94
451.405	3468.94
451.512	3414.94
451.619	3520.94
451.727	3628.94
451.834	3436.94
451.941	3386.94
452.049	3483.94
452.156	3520.94
452.263	3483.94
452.371	3572.94
452.478	3615.94
452.585	3639.94
452.692	3570.94
452.8	3609.94
452.907	3767.94
453.014	3695.94
453.121	3650.94
453.229	3579.94
453.336	3679.94
453.443	3724.94
453.55	3554.94
453.657	3559.94
453.765	3757.94
453.872	3633.94
453.979	3704.94
454.086	3799.94
454.193	3833.94
454.3	3616.94
454.407	3834.94
454.514	3844.94
454.621	3681.94
454.729	3665.94
454.836	3790.94
454.943	3784.94
455.05	3769.94
455.157	3933.94
455.264	3759.94
455.371	3891.94
455.478	3834.94
455.585	4193.94
455.692	3886.94
455.799	4069.94
455.906	3851.94
456.013	3820.94
456.12	3833.94
456.227	3897.94
456.334	4003.94
456.44	4046.94
456.547	4023.94
456.654	3923.94
456.761	4006.94
456.868	4110.94
456.975	4153.94
457.082	3930.94
457.189	3955.94
457.296	4077.94
457.402	4033.94
457.509	3981.94
457.616	4250.94
457.723	4410.94
457.83	4180.94
457.936	4161.94
458.043	4551.94
458.15	4200.94
458.257	4417.94
458.363	4466.94
458.47	4433.94
458.577	4561.94
458.684	4600.94
458.79	4700.94
458.897	4621.94
459.004	4871.94
459.11	4802.94
459.217	4788.94
459.324	4945.94
459.43	5116.94
459.537	5185.94
459.644	5115.94
459.75	5037.94
459.857	5408.94
459.964	5263.94
460.07	5407.94
460.177	5282.94
460.283	5324.94
460.39	5643.94
460.496	5347.94
460.603	5341.94
460.71	5191.94
460.816	5233.94
460.923	5262.94
461.029	5332.94
461.136	5367.94
461.242	5226.94
461.349	5359.94
461.455	5414.94
461.562	5665.94
461.668	5580.94
461.774	5306.94
461.881	5467.94
461.987	5473.94
462.094	5601.94
462.2	5723.94
462.307	5663.94
462.413	5701.94
462.519	5804.94
462.626	6050.94
462.732	6058.94
462.838	6478.94
462.945	6506.94
463.051	6540.94
463.157	6479.94
463.264	6257.94
463.37	6161.94
463.476	5967.94
463.583	5891.94
463.689	5842.94
463.795	5821.94
463.901	5859.94
464.008	6022.94
464.114	5895.94
464.22	5918.94
464.326	5779.94
464.433	5599.94
464.539	5647.94
464.645	5480.94
464.751	5723.94
464.857	5385.94
464.963	5161.94
465.07	5025.94
465.176	4856.94
465.282	4679.94
465.388	4744.94
465.494	4515.94
465.6	4451.94
465.706	4376.94
465.812	4276.94
465.918	4409.94
466.024	4235.94
466.131	4186.94
466.237	4071.94
466.343	4069.94
466.449	3897.94
466.555	3939.94
466.661	3863.94
466.767	3787.94
466.873	3868.94
466.979	4029.94
467.085	3776.94
467.191	3823.94
467.296	3849.94
467.402	3720.94
467.508	3733.94
467.614	3939.94
467.72	3591.94
467.826	3542.94
467.932	3546.94
468.038	3548.94
468.144	3495.94
468.25	3347.94
468.355	3438.94
468.461	3480.94
468.567	3395.94
468.673	3529.94
468.779	3439.94
468.885	3376.94
468.99	3405.94
469.096	3373.94
469.202	3550.94
469.308	3545.94
469.413	3559.94
469.519	3457.94
469.625	3513.94
469.731	3549.94
469.836	3502.94
469.942	3672.94
470.048	3512.94
470.153	3542.94
470.259	3506.94
470.365	3587.94
470.47	3543.94
470.576	3559.94
470.682	3524.94
470.787	3431.94
470.893	3406.94
470.999	3385.94
471.104	3371.94
471.21	3283.94
471.315	3203.94
471.421	3229.94
471.527	3369.94
471.632	3215.94
471.738	3227.94
471.843	3142.94
471.949	3133.94
472.054	3157.94
472.16	3043.94
472.265	2972.94
472.371	3024.94
472.476	3050.94
472.582	3151.94
472.687	2912.94
472.793	2951.94
472.898	2945.94
473.003	2986.94
473.109	2848.94
473.214	2772.94
473.32	2819.94
473.425	2983.94
473.53	2862.94
473.636	2818.94
473.741	2842.94
473.847	2839.94
473.952	2853.94
474.057	2911.94
474.163	2961.94
474.268	2840.94
474.373	2870.94
474.478	2830.94
474.584	2846.94
474.689	2874.94
474.794	2929.94
474.9	3143.94
475.005	2798.94
475.11	3042.94
475.215	2803.94
475.321	2896.94
475.426	2970.94
475.531	3054.94
475.636	2775.94
475.741	2800.94
475.846	3032.94
475.952	3078.94
476.057	2951.94
476.162	3062.94
476.267	3126.94
476.372	3237.94
476.477	2989.94
476.582	2995.94
476.687	2925.94
476.793	3038.94
476.898	3094.94
477.003	3014.94
477.108	3004.94
477.213	3028.94
477.318	3030.94
477.423	3155.94
477.528	3267.94
477.633	3258.94
477.738	3244.94
477.843	3145.94
477.948	3255.94
478.053	3246.94
478.158	3277.94
478.263	3423.94
478.368	3270.94
478.473	3364.94
478.578	3435.94
478.682	3271.94
478.787	3373.94
478.892	3457.94
478.997	3418.94
479.102	3303.94
479.207	3293.94
479.312	3487.94
479.417	3346.94
479.521	3399.94
479.626	3579.94
479.731	3454.94
479.836	3573.94
479.941	3718.94
480.045	3651.94
480.15	3722.94
480.255	3740.94
480.36	3658.94
480.465	3711.94
480.569	3852.94
480.674	3623.94
480.779	3516.94
480.883	3531.94
480.988	3660.94
481.093	3528.94
481.197	3559.94
481.302	3649.94
481.407	3576.94
481.511	5384.94
481.616	3596.94
481.721	3448.94
481.825	3670.94
481.93	3519.94
482.035	3486.94
482.139	3544.94
482.244	3559.94
482.348	3595.94
482.453	3586.94
482.557	3736.94
482.662	3624.94
482.767	3546.94
482.871	3641.94
482.976	3672.94
483.08	3636.94
483.185	3814.94
483.289	3683.94
483.394	3806.94
483.498	3728.94
483.603	3757.94
483.707	3894.94
483.811	3842.94
483.916	3904.94
484.02	3992.94
484.125	4026.94
484.229	3946.94
484.333	4170.94
484.438	3962.94
484.542	3988.94
484.647	3998.94
484.751	4031.94
484.855	4042.94
484.96	4086.94
485.064	4190.94
485.168	4173.94
485.273	4136.94
485.377	4255.94
485.481	4378.94
485.585	4249.94
485.69	4317.94
485.794	4358.94
485.898	4332.94
486.002	4297.94
486.107	4382.94
486.211	4302.94
486.315	4387.94
486.419	4524.94
486.524	4315.94
486.628	4376.94
486.732	4338.94
486.836	4337.94
486.94	4523.94
487.044	4396.94
487.148	4400.94
487.253	4313.94
487.357	4497.94
487.461	4507.94
487.565	4350.94
487.669	4358.94
487.773	4443.94
487.877	4370.94
487.981	4497.94
488.085	4463.94
488.189	4390.94
488.293	4533.94
488.397	4909.94
488.501	4400.94
488.605	4366.94
488.709	4378.94
488.813	4351.94
488.917	4338.94
489.021	4439.94
489.125	4800.94
489.229	4377.94
489.333	4618.94
489.437	4557.94
489.541	4498.94
489.645	4423.94
489.749	4518.94
489.853	4477.94
489.956	4431.94
490.06	4475.94
490.164	4508.94
490.268	4397.94
490.372	4504.94
490.476	4458.94
490.579	4416.94
490.683	5018.94
490.787	4574.94
490.891	4427.94
490.995	4442.94
491.098	4510.94
491.202	4521.94
491.306	4514.94
491.41	4584.94
491.513	4477.94
491.617	4513.94
491.721	4630.94
491.824	4793.94
491.928	4442.94
492.032	4764.94
492.136	4546.94
492.239	4439.94
492.343	4512.94
492.446	4905.94
492.55	4504.94
492.654	4363.94
492.757	4524.94
492.861	4590.94
492.965	4425.94
493.068	4482.94
493.172	4567.94
493.275	4459.94
493.379	4475.94
493.482	4648.94
493.586	4537.94
493.689	4688.94
493.793	4538.94
493.896	4669.94
494	4643.94
494.103	4639.94
494.207	4888.94
494.31	4912.94
494.414	4571.94
494.517	4505.94
494.621	4440.94
494.724	4443.94
494.828	4431.94
494.931	4415.94
495.034	4402.94
495.138	4634.94
495.241	4416.94
495.345	5101.94
495.448	4545.94
495.551	4398.94
495.655	4449.94
495.758	4355.94
495.861	4298.94
495.965	4369.94
496.068	4464.94
496.171	4497.94
496.274	4351.94
496.378	4406.94
496.481	4540.94
496.584	4464.94
496.687	4468.94
496.791	4527.94
496.894	4440.94
496.997	4461.94
497.1	4524.94
497.204	4627.94
497.307	4497.94
497.41	4687.94
497.513	4939.94
497.616	4640.94
497.719	4659.94
497.823	4727.94
497.926	4698.94
498.029	4916.94
498.132	4936.94
498.235	4995.94
498.338	5062.94
498.441	5299.94
498.544	5287.94
498.647	5438.94
498.75	5701.94
498.853	5905.94
498.956	5863.94
499.059	6142.94
499.163	6290.94
499.266	6459.94
499.369	6576.94
499.471	6851.94
499.574	7155.94
499.677	7343.94
499.78	7809.94
499.883	8039.94
499.986	8582.94
500.089	8742.94
500.192	8970.94
500.295	9068.94
500.398	9021.94
500.501	9053.94
500.604	8672.94
500.707	8192.94
500.809	7942.94
500.912	7790.94
501.015	7469.94
501.118	7042.94
501.221	6760.94
501.324	6345.94
501.426	6107.94
501.529	5884.94
501.632	5661.94
501.735	5390.94
501.837	5404.94
501.94	5131.94
502.043	4956.94
502.146	4943.94
502.248	4869.94
502.351	4727.94
502.454	4600.94
502.557	4556.94
502.659	4591.94
502.762	4382.94
502.865	4292.94
502.967	4139.94
503.07	4202.94
503.173	4201.94
503.275	4104.94
503.378	4059.94
503.48	3968.94
503.583	4078.94
503.686	3902.94
503.788	4246.94
503.891	4010.94
503.993	4147.94
504.096	3868.94
504.198	4081.94
504.301	3948.94
504.403	3928.94
504.506	3967.94
504.608	3836.94
504.711	3846.94
504.813	3875.94
504.916	3631.94
505.018	3521.94
505.121	3430.94
505.223	3495.94
505.326	3422.94
505.428	3496.94
505.531	3351.94
505.633	3265.94
505.735	3299.94
505.838	3247.94
505.94	3218.94
506.042	3119.94
506.145	3164.94
506.247	3285.94
506.35	3121.94
506.452	3201.94
506.554	3198.94
506.656	3111.94
506.759	3080.94
506.861	3197.94
506.963	3021.94
507.066	3190.94
507.168	3205.94
507.27	2995.94
507.372	2955.94
507.475	3083.94
507.577	3091.94
507.679	2991.94
507.781	2941.94
507.883	2975.94
507.986	2904.94
508.088	2956.94
508.19	2986.94
508.292	2903.94
508.394	2858.94
508.496	2862.94
508.598	2869.94
508.701	2868.94
508.803	2970.94
508.905	2887.94
509.007	2826.94
509.109	2966.94
509.211	3015.94
509.313	2861.94
509.415	2801.94
509.517	2929.94
509.619	2802.94
509.721	2846.94
509.823	2902.94
509.925	2974.94
510.027	2801.94
510.129	2906.94
510.231	2850.94
510.333	2812.94
510.435	2806.94
510.537	2984.94
510.639	2910.94
510.741	2846.94
510.843	2888.94
510.945	2738.94
511.047	2881.94
511.148	2951.94
511.25	2808.94
511.352	2872.94
511.454	2808.94
511.556	2879.94
511.658	2842.94
511.76	2918.94
511.861	2986.94
511.963	2842.94
512.065	2844.94
512.167	2852.94
512.268	2998.94
512.37	2911.94
512.472	2942.94
512.574	2904.94
512.676	2929.94
512.777	2855.94
512.879	2795.94
512.981	2787.94
513.082	2812.94
513.184	2877.94
513.286	3359.94
513.387	2947.94
513.489	3085.94
513.591	2940.94
513.692	2971.94
513.794	3031.94
513.896	2874.94
513.997	2934.94
514.099	2905.94
514.2	2912.94
514.302	2906.94
514.404	2930.94
514.505	2991.94
514.607	3026.94
514.708	2954.94
514.81	3012.94
514.911	3052.94
515.013	3109.94
515.114	3141.94
515.216	3011.94
515.317	3070.94
515.419	3114.94
515.52	3126.94
515.622	3119.94
515.723	3154.94
515.825	3350.94
515.926	3276.94
516.027	3140.94
516.129	3367.94
516.23	3323.94
516.332	3408.94
516.433	3424.94
516.534	3563.94
516.636	3504.94
516.737	3583.94
516.838	4577.94
516.94	3803.94
517.041	3834.94
517.142	3934.94
517.244	3986.94
517.345	3909.94
517.446	4090.94
517.547	4034.94
517.649	3972.94
517.75	4009.94
517.851	4018.94
517.952	4170.94
518.054	4081.94
518.155	4016.94
518.256	3740.94
518.357	3992.94
518.458	3639.94
518.56	3661.94
518.661	3646.94
518.762	3677.94
518.863	3689.94
518.964	3666.94
519.065	3613.94
519.166	3456.94
519.268	3442.94
519.369	3681.94
519.47	3454.94
519.571	3390.94
519.672	3343.94
519.773	3395.94
519.874	3386.94
519.975	3446.94
520.076	3390.94
520.177	3362.94
520.278	3237.94
520.379	3422.94
520.48	3277.94
520.581	3283.94
520.682	3295.94
520.783	3205.94
520.884	3302.94
520.985	3327.94
521.086	3310.94
521.187	3309.94
521.288	3282.94
521.389	3341.94
521.489	3272.94
521.59	3197.94
521.691	3347.94
521.792	3261.94
521.893	3401.94
521.994	3473.94
522.095	3265.94
522.195	3315.94
522.296	3472.94
522.397	3342.94
522.498	3264.94
522.599	3282.94
522.699	3306.94
522.8	3324.94
522.901	3330.94
523.002	3319.94
523.102	3506.94
523.203	3273.94
523.304	3465.94
523.405	3242.94
523.505	3287.94
523.606	3403.94
523.707	3362.94
523.807	3327.94
523.908	3265.94
524.009	3481.94
524.109	3373.94
524.21	3305.94
524.31	3407.94
524.411	3403.94
524.512	3421.94
524.612	3398.94
524.713	3458.94
524.813	3288.94
524.914	3616.94
525.014	7686.94
525.115	3633.94
525.216	3334.94
525.316	3402.94
525.417	3330.94
525.517	3319.94
525.618	3407.94
525.718	3272.94
525.819	3265.94
525.919	3432.94
526.019	3290.94
526.12	3359.94
526.22	3257.94
526.321	3250.94
526.421	3172.94
526.522	3254.94
526.622	3214.94
526.722	3238.94
526.823	3314.94
526.923	3327.94
527.023	3330.94
527.124	3242.94
527.224	3426.94
527.324	3228.94
527.425	3279.94
527.525	3127.94
527.625	3235.94
527.726	3243.94
527.826	3350.94
527.926	3313.94
528.026	3283.94
528.127	3230.94
528.227	3336.94
528.327	3362.94
528.427	3276.94
528.528	3286.94
528.628	3316.94
528.728	3321.94
528.828	3425.94
528.928	3349.94
529.029	3203.94
529.129	3323.94
529.229	3270.94
529.329	3258.94
529.429	3364.94
529.529	3406.94
529.629	3241.94
529.729	3160.94
529.829	3420.94
529.93	3233.94
530.03	3341.94
530.13	3241.94
530.23	3261.94
530.33	3315.94
530.43	3208.94
530.53	3265.94
530.63	3111.94
530.73	3113.94
530.83	3132.94
530.93	3099.94
531.03	3002.94
531.13	3356.94
531.23	2991.94
531.33	3129.94
531.429	3256.94
531.529	3158.94
531.629	3119.94
531.729	3041.94
531.829	3100.94
531.929	3024.94
532.029	3086.94
532.129	3135.94
532.229	3078.94
532.328	3066.94
532.428	3036.94
532.528	3012.94
532.628	2987.94
532.728	3051.94
532.827	2910.94
532.927	3137.94
533.027	3058.94
533.127	3174.94
533.227	3073.94
533.326	3023.94
533.426	2989.94
533.526	3162.94
533.625	3183.94
533.725	3277.94
533.825	2981.94
533.924	2911.94
534.024	2841.94
534.124	2849.94
534.223	2907.94
534.323	3371.94
534.423	2965.94
534.522	2920.94
534.622	2822.94
534.722	2990.94
534.821	2870.94
534.921	2794.94
535.02	2848.94
535.12	2871.94
535.219	2902.94
535.319	2958.94
535.419	2846.94
535.518	2732.94
535.618	2815.94
535.717	2898.94
535.817	2682.94
535.916	2641.94
536.016	2784.94
536.115	2576.94
536.215	2619.94
536.314	2561.94
536.413	2537.94
536.513	2611.94
536.612	2715.94
536.712	2517.94
536.811	2518.94
536.91	2552.94
537.01	2513.94
537.109	2640.94
537.209	2558.94
537.308	2526.94
537.407	2522.94
537.507	2609.94
537.606	2604.94
537.705	2543.94
537.805	2518.94
537.904	2488.94
