Data from 14g_HRC06701__6__189.txt Node

Date: Thu Apr 18 01:58:00 CDT 2024
User: Estudiantes 2
Spectrometer: HR+C0670
Trigger mode: 4
Integration Time (sec): 1.000000E0
Scans to average: 1
Electric dark correction enabled: true
Nonlinearity correction enabled: false
Boxcar width: 0
XAxis mode: Wavelengths
Number of Pixels in Spectrum: 2048
>>>>>Begin Spectral Data<<<<<
407.81	-131.44
407.921	-131.44
408.032	-131.44
408.143	-105.44
408.254	-87.44
408.365	35.56
408.476	233.56
408.587	-24.44
408.699	-40.44
408.81	-52.44
408.921	-26.44
409.032	-19.44
409.143	20.56
409.254	15.56
409.365	133.56
409.476	-58.44
409.587	13.56
409.698	93.56
409.809	65.56
409.92	-41.44
410.031	-16.44
410.142	44.56
410.253	20.56
410.364	83.56
410.475	887.56
410.585	4132.56
410.696	4456.56
410.807	4365.56
410.918	4383.56
411.029	4496.56
411.14	4542.56
411.251	4515.56
411.362	4505.56
411.472	4604.56
411.583	4494.56
411.694	4672.56
411.805	4663.56
411.916	4610.56
412.026	4604.56
412.137	4647.56
412.248	4592.56
412.359	4606.56
412.47	4528.56
412.58	4535.56
412.691	4536.56
412.802	4507.56
412.912	4477.56
413.023	4537.56
413.134	4442.56
413.245	4509.56
413.355	4508.56
413.466	4497.56
413.577	4494.56
413.687	4655.56
413.798	4344.56
413.909	4644.56
414.019	4532.56
414.13	4548.56
414.24	4446.56
414.351	4563.56
414.462	4712.56
414.572	4537.56
414.683	4508.56
414.793	4577.56
414.904	4844.56
415.014	4486.56
415.125	4422.56
415.235	4484.56
415.346	4625.56
415.456	4713.56
415.567	4523.56
415.677	4461.56
415.788	4655.56
415.898	4487.56
416.009	4401.56
416.119	4620.56
416.23	4472.56
416.34	4409.56
416.45	4494.56
416.561	5411.56
416.671	4425.56
416.782	4473.56
416.892	4640.56
417.002	4550.56
417.113	4619.56
417.223	4608.56
417.333	4544.56
417.444	4661.56
417.554	4663.56
417.664	4855.56
417.775	4587.56
417.885	4777.56
417.995	4807.56
418.106	4969.56
418.216	4828.56
418.326	4970.56
418.436	5056.56
418.547	4980.56
418.657	5037.56
418.767	5140.56
418.877	5040.56
418.987	5219.56
419.098	5178.56
419.208	5129.56
419.318	5120.56
419.428	5313.56
419.538	5053.56
419.648	5237.56
419.759	5258.56
419.869	5212.56
419.979	5141.56
420.089	5238.56
420.199	5150.56
420.309	5111.56
420.419	5303.56
420.529	5220.56
420.639	5686.56
420.749	5272.56
420.859	5406.56
420.969	5341.56
421.079	5578.56
421.189	5414.56
421.299	5277.56
421.409	5342.56
421.519	5530.56
421.629	5520.56
421.739	5401.56
421.849	5469.56
421.959	5464.56
422.069	5488.56
422.179	5632.56
422.289	5641.56
422.399	5736.56
422.509	5829.56
422.619	8450.56
422.729	6050.56
422.838	5783.56
422.948	5942.56
423.058	5774.56
423.168	5878.56
423.278	6002.56
423.388	6095.56
423.498	6179.56
423.607	6143.56
423.717	6511.56
423.827	6501.56
423.937	6343.56
424.046	6319.56
424.156	6405.56
424.266	6307.56
424.376	6612.56
424.485	6569.56
424.595	6509.56
424.705	6492.56
424.815	6528.56
424.924	6972.56
425.034	6659.56
425.144	6531.56
425.253	6567.56
425.363	6823.56
425.473	6841.56
425.582	6518.56
425.692	6766.56
425.801	6672.56
425.911	6838.56
426.021	6862.56
426.13	7100.56
426.24	7056.56
426.349	7006.56
426.459	7139.56
426.568	7011.56
426.678	7185.56
426.787	7263.56
426.897	7234.56
427.006	7236.56
427.116	7319.56
427.225	7306.56
427.335	7356.56
427.444	7287.56
427.554	7279.56
427.663	7399.56
427.773	7295.56
427.882	7610.56
427.992	7581.56
428.101	7621.56
428.21	7510.56
428.32	7877.56
428.429	7696.56
428.539	8016.56
428.648	7786.56
428.757	7702.56
428.867	7863.56
428.976	8034.56
429.085	8007.56
429.195	8012.56
429.304	8003.56
429.413	8051.56
429.523	8079.56
429.632	8049.56
429.741	8104.56
429.85	8058.56
429.96	8215.56
430.069	8254.56
430.178	8305.56
430.287	8549.56
430.397	8406.56
430.506	8360.56
430.615	8386.56
430.724	8612.56
430.833	8562.56
430.943	8563.56
431.052	8505.56
431.161	8641.56
431.27	8723.56
431.379	8736.56
431.488	9100.56
431.597	8906.56
431.706	9084.56
431.816	9163.56
431.925	9000.56
432.034	9112.56
432.143	9099.56
432.252	8974.56
432.361	8931.56
432.47	9032.56
432.579	9082.56
432.688	8903.56
432.797	8980.56
432.906	8947.56
433.015	9154.56
433.124	9234.56
433.233	9224.56
433.342	9069.56
433.451	9223.56
433.56	9147.56
433.669	9172.56
433.778	9159.56
433.886	9303.56
433.995	9272.56
434.104	9526.56
434.213	9556.56
434.322	9497.56
434.431	9624.56
434.54	9925.56
434.649	10116.56
434.757	10185.56
434.866	9864.56
434.975	9957.56
435.084	9793.56
435.193	9525.56
435.301	9589.56
435.41	9535.56
435.519	9655.56
435.628	8963.56
435.737	9057.56
435.845	8839.56
435.954	8631.56
436.063	8794.56
436.171	8664.56
436.28	8650.56
436.389	8793.56
436.498	8560.56
436.606	8667.56
436.715	8820.56
436.823	8515.56
436.932	8364.56
437.041	8359.56
437.149	8420.56
437.258	8138.56
437.367	7914.56
437.475	8170.56
437.584	8416.56
437.692	8075.56
437.801	9655.56
437.91	8052.56
438.018	7845.56
438.127	7886.56
438.235	8093.56
438.344	8108.56
438.452	7946.56
438.561	7852.56
438.669	7946.56
438.778	7745.56
438.886	7862.56
438.995	7828.56
439.103	7912.56
439.212	7880.56
439.32	7943.56
439.428	7763.56
439.537	7872.56
439.645	8131.56
439.754	7983.56
439.862	7796.56
439.97	8083.56
440.079	7972.56
440.187	7891.56
440.295	8195.56
440.404	8083.56
440.512	8108.56
440.62	8180.56
440.729	8336.56
440.837	8286.56
440.945	9010.56
441.054	8580.56
441.162	8532.56
441.27	8705.56
441.378	8918.56
441.487	8668.56
441.595	9100.56
441.703	9002.56
441.811	8678.56
441.92	8529.56
442.028	8576.56
442.136	8622.56
442.244	8486.56
442.352	8481.56
442.461	8267.56
442.569	8372.56
442.677	8363.56
442.785	8481.56
442.893	8500.56
443.001	8352.56
443.109	8228.56
443.217	8364.56
443.325	8403.56
443.434	9130.56
443.542	8752.56
443.65	8574.56
443.758	8789.56
443.866	8876.56
443.974	9227.56
444.082	9135.56
444.19	9321.56
444.298	9328.56
444.406	9536.56
444.514	9836.56
444.622	9629.56
444.73	9614.56
444.838	9516.56
444.946	9460.56
445.054	9347.56
445.161	9220.56
445.269	9139.56
445.377	8904.56
445.485	9036.56
445.593	8870.56
445.701	8791.56
445.809	8776.56
445.917	8746.56
446.025	8586.56
446.132	8823.56
446.24	8806.56
446.348	8631.56
446.456	8511.56
446.564	8561.56
446.671	8653.56
446.779	8545.56
446.887	8548.56
446.995	8526.56
447.102	8605.56
447.21	8609.56
447.318	8515.56
447.426	8360.56
447.533	8692.56
447.641	9828.56
447.749	8632.56
447.856	8349.56
447.964	8505.56
448.072	8684.56
448.179	8537.56
448.287	8684.56
448.395	8629.56
448.502	8408.56
448.61	8571.56
448.718	8599.56
448.825	8652.56
448.933	8607.56
449.04	8732.56
449.148	8753.56
449.256	8636.56
449.363	8756.56
449.471	8986.56
449.578	8902.56
449.686	8808.56
449.793	9159.56
449.901	8942.56
450.008	9055.56
450.116	9193.56
450.223	9269.56
450.331	9431.56
450.438	9429.56
450.546	9562.56
450.653	9583.56
450.76	9833.56
450.868	9828.56
450.975	9913.56
451.083	9861.56
451.19	9989.56
451.297	9766.56
451.405	9956.56
451.512	10102.56
451.619	10095.56
451.727	10112.56
451.834	10171.56
451.941	10120.56
452.049	10029.56
452.156	10132.56
452.263	10365.56
452.371	10221.56
452.478	10247.56
452.585	10478.56
452.692	10264.56
452.8	10346.56
452.907	10580.56
453.014	10467.56
453.121	10561.56
453.229	10607.56
453.336	10556.56
453.443	10564.56
453.55	10670.56
453.657	10519.56
453.765	10901.56
453.872	10634.56
453.979	10838.56
454.086	10941.56
454.193	10932.56
454.3	10694.56
454.407	10927.56
454.514	11176.56
454.621	10976.56
454.729	11063.56
454.836	10946.56
454.943	11125.56
455.05	11047.56
455.157	11184.56
455.264	11136.56
455.371	11202.56
455.478	11187.56
455.585	11740.56
455.692	11556.56
455.799	11651.56
455.906	11536.56
456.013	11458.56
456.12	11481.56
456.227	11550.56
456.334	11817.56
456.44	11864.56
456.547	11742.56
456.654	11751.56
456.761	12040.56
456.868	11984.56
456.975	12059.56
457.082	12078.56
457.189	11999.56
457.296	12153.56
457.402	12236.56
457.509	12191.56
457.616	12367.56
457.723	12664.56
457.83	12587.56
457.936	12645.56
458.043	13011.56
458.15	12757.56
458.257	12948.56
458.363	13101.56
458.47	13324.56
458.577	13513.56
458.684	13479.56
458.79	14044.56
458.897	14059.56
459.004	14279.56
459.11	14143.56
459.217	14376.56
459.324	14561.56
459.43	14561.56
459.537	14561.56
459.644	14561.56
459.75	14561.56
459.857	14561.56
459.964	14561.56
460.07	14561.56
460.177	14561.56
460.283	14561.56
460.39	14561.56
460.496	14561.56
460.603	14561.56
460.71	14561.56
460.816	14561.56
460.923	14561.56
461.029	14561.56
461.136	14561.56
461.242	14561.56
461.349	14561.56
461.455	14561.56
461.562	14561.56
461.668	14561.56
461.774	14561.56
461.881	14561.56
461.987	14561.56
462.094	14561.56
462.2	14561.56
462.307	14561.56
462.413	14561.56
462.519	14561.56
462.626	14561.56
462.732	14561.56
462.838	14561.56
462.945	14561.56
463.051	14561.56
463.157	14561.56
463.264	14561.56
463.37	14561.56
463.476	14561.56
463.583	14561.56
463.689	14561.56
463.795	14561.56
463.901	14561.56
464.008	14561.56
464.114	14561.56
464.22	14561.56
464.326	14561.56
464.433	14561.56
464.539	14561.56
464.645	14561.56
464.751	14561.56
464.857	14561.56
464.963	14561.56
465.07	14561.56
465.176	14493.56
465.282	14174.56
465.388	14034.56
465.494	13716.56
465.6	13396.56
465.706	13165.56
465.812	13001.56
465.918	12972.56
466.024	12908.56
466.131	12547.56
466.237	12309.56
466.343	12113.56
466.449	12044.56
466.555	11880.56
466.661	11699.56
466.767	11598.56
466.873	11612.56
466.979	11626.56
467.085	11609.56
467.191	11573.56
467.296	11380.56
467.402	11268.56
467.508	11172.56
467.614	11323.56
467.72	10882.56
467.826	10929.56
467.932	10730.56
468.038	10747.56
468.144	10746.56
468.25	10405.56
468.355	10457.56
468.461	10640.56
468.567	10366.56
468.673	10418.56
468.779	10360.56
468.885	10348.56
468.99	10244.56
469.096	10321.56
469.202	10430.56
469.308	10399.56
469.413	10517.56
469.519	10565.56
469.625	10440.56
469.731	10528.56
469.836	10629.56
469.942	10655.56
470.048	10469.56
470.153	10551.56
470.259	10486.56
470.365	10573.56
470.47	10545.56
470.576	10448.56
470.682	10297.56
470.787	10199.56
470.893	10035.56
470.999	10072.56
471.104	9915.56
471.21	9806.56
471.315	9643.56
471.421	9715.56
471.527	9781.56
471.632	9544.56
471.738	9262.56
471.843	9312.56
471.949	9304.56
472.054	9404.56
472.16	9188.56
472.265	9187.56
472.371	8982.56
472.476	8879.56
472.582	9205.56
472.687	9010.56
472.793	8895.56
472.898	8945.56
473.003	8812.56
473.109	8736.56
473.214	8680.56
473.32	8685.56
473.425	8718.56
473.53	8628.56
473.636	8652.56
473.741	8563.56
473.847	8596.56
473.952	8651.56
474.057	8611.56
474.163	8654.56
474.268	8654.56
474.373	8645.56
474.478	8494.56
474.584	8477.56
474.689	8561.56
474.794	8542.56
474.9	8843.56
475.005	8422.56
475.11	8658.56
475.215	8419.56
475.321	8542.56
475.426	8666.56
475.531	8703.56
475.636	8652.56
475.741	8572.56
475.846	8939.56
475.952	8870.56
476.057	8744.56
476.162	8831.56
476.267	8895.56
476.372	9105.56
476.477	8763.56
476.582	8990.56
476.687	8883.56
476.793	9007.56
476.898	9003.56
477.003	9047.56
477.108	8878.56
477.213	9087.56
477.318	9290.56
477.423	9272.56
477.528	9440.56
477.633	9524.56
477.738	9577.56
477.843	9324.56
477.948	9627.56
478.053	9721.56
478.158	9556.56
478.263	9853.56
478.368	9882.56
478.473	10050.56
478.578	10051.56
478.682	10058.56
478.787	10163.56
478.892	10067.56
478.997	10282.56
479.102	10119.56
479.207	10086.56
479.312	10269.56
479.417	10415.56
479.521	10260.56
479.626	10447.56
479.731	10402.56
479.836	10492.56
479.941	10785.56
480.045	10716.56
480.15	10851.56
480.255	10831.56
480.36	10907.56
480.465	10899.56
480.569	11013.56
480.674	10820.56
480.779	10540.56
480.883	10590.56
480.988	10615.56
481.093	10723.56
481.197	10421.56
481.302	10617.56
481.407	10585.56
481.511	11889.56
481.616	10558.56
481.721	10476.56
481.825	10664.56
481.93	10547.56
482.035	10535.56
482.139	10596.56
482.244	10693.56
482.348	10709.56
482.453	10781.56
482.557	10842.56
482.662	10756.56
482.767	10776.56
482.871	10828.56
482.976	10900.56
483.08	11118.56
483.185	11127.56
483.289	11206.56
483.394	11146.56
483.498	11223.56
483.603	11086.56
483.707	11301.56
483.811	11481.56
483.916	11534.56
484.02	11489.56
484.125	11815.56
484.229	11754.56
484.333	11702.56
484.438	11811.56
484.542	11854.56
484.647	12068.56
484.751	12180.56
484.855	12252.56
484.96	12114.56
485.064	12455.56
485.168	12507.56
485.273	12326.56
485.377	12607.56
485.481	12923.56
485.585	12641.56
485.69	12781.56
485.794	12815.56
485.898	12736.56
486.002	12867.56
486.107	12919.56
486.211	12895.56
486.315	13020.56
486.419	13021.56
486.524	12917.56
486.628	12977.56
486.732	13035.56
486.836	12975.56
486.94	13192.56
487.044	12940.56
487.148	13065.56
487.253	12983.56
487.357	13120.56
487.461	13206.56
487.565	13133.56
487.669	13107.56
487.773	12944.56
487.877	13132.56
487.981	13051.56
488.085	13108.56
488.189	13029.56
488.293	13096.56
488.397	13354.56
488.501	13167.56
488.605	13048.56
488.709	13088.56
488.813	13102.56
488.917	13180.56
489.021	13174.56
489.125	13342.56
489.229	13182.56
489.333	13400.56
489.437	13243.56
489.541	13257.56
489.645	13102.56
489.749	13255.56
489.853	13384.56
489.956	13254.56
490.06	13344.56
490.164	13460.56
490.268	13306.56
490.372	13452.56
490.476	13262.56
490.579	13280.56
490.683	13923.56
490.787	13433.56
490.891	13359.56
490.995	13262.56
491.098	13215.56
491.202	13362.56
491.306	13452.56
491.41	13198.56
491.513	13372.56
491.617	13431.56
491.721	13572.56
491.824	13454.56
491.928	13370.56
492.032	13562.56
492.136	13358.56
492.239	13463.56
492.343	13426.56
492.446	13826.56
492.55	13376.56
492.654	13364.56
492.757	13493.56
492.861	13448.56
492.965	13345.56
493.068	13579.56
493.172	13386.56
493.275	13539.56
493.379	13596.56
493.482	13627.56
493.586	13661.56
493.689	13740.56
493.793	13583.56
493.896	13718.56
494	13629.56
494.103	13736.56
494.207	13906.56
494.31	13952.56
494.414	13574.56
494.517	13511.56
494.621	13294.56
494.724	13462.56
494.828	13432.56
494.931	13372.56
495.034	13416.56
495.138	13595.56
495.241	13300.56
495.345	14110.56
495.448	13479.56
495.551	13223.56
495.655	13345.56
495.758	13400.56
495.861	13232.56
495.965	13405.56
496.068	13504.56
496.171	13500.56
496.274	13443.56
496.378	13348.56
496.481	13426.56
496.584	13597.56
496.687	13777.56
496.791	13675.56
496.894	13805.56
496.997	13764.56
497.1	13948.56
497.204	13956.56
497.307	14029.56
497.41	14290.56
497.513	14378.56
497.616	14447.56
497.719	14561.56
497.823	14561.56
497.926	14561.56
498.029	14561.56
498.132	14561.56
498.235	14561.56
498.338	14561.56
498.441	14561.56
498.544	14561.56
498.647	14561.56
498.75	14561.56
498.853	14561.56
498.956	14561.56
499.059	14561.56
499.163	14561.56
499.266	14561.56
499.369	14561.56
499.471	14561.56
499.574	14561.56
499.677	14561.56
499.78	14561.56
499.883	14561.56
499.986	14561.56
500.089	14561.56
500.192	14561.56
500.295	14561.56
500.398	14561.56
500.501	14561.56
500.604	14561.56
500.707	14561.56
500.809	14561.56
500.912	14561.56
501.015	14561.56
501.118	14561.56
501.221	14561.56
501.324	14561.56
501.426	14561.56
501.529	14561.56
501.632	14561.56
501.735	14561.56
501.837	14561.56
501.94	14561.56
502.043	14561.56
502.146	14561.56
502.248	14561.56
502.351	14561.56
502.454	14531.56
502.557	14278.56
502.659	14057.56
502.762	13570.56
502.865	13458.56
502.967	13195.56
503.07	12936.56
503.173	12772.56
503.275	12760.56
503.378	12563.56
503.48	12298.56
503.583	12422.56
503.686	12054.56
503.788	12455.56
503.891	12228.56
503.993	12318.56
504.096	12033.56
504.198	12058.56
504.301	12018.56
504.403	11980.56
504.506	11909.56
504.608	11699.56
504.711	11532.56
504.813	11315.56
504.916	11188.56
505.018	10937.56
505.121	10611.56
505.223	10704.56
505.326	10528.56
505.428	10456.56
505.531	10108.56
505.633	10065.56
505.735	9934.56
505.838	9839.56
505.94	9823.56
506.042	9738.56
506.145	9743.56
506.247	9690.56
506.35	9670.56
506.452	9552.56
506.554	9593.56
506.656	9612.56
506.759	9358.56
506.861	9443.56
506.963	9351.56
507.066	9352.56
507.168	9423.56
507.27	9281.56
507.372	9005.56
507.475	9252.56
507.577	9135.56
507.679	8946.56
507.781	8910.56
507.883	8898.56
507.986	8900.56
508.088	8807.56
508.19	8781.56
508.292	8818.56
508.394	8662.56
508.496	8793.56
508.598	8788.56
508.701	8720.56
508.803	8646.56
508.905	8637.56
509.007	8744.56
509.109	8689.56
509.211	8692.56
509.313	8574.56
509.415	8450.56
509.517	8617.56
509.619	8523.56
509.721	8515.56
509.823	8530.56
509.925	8743.56
510.027	8382.56
510.129	8462.56
510.231	8517.56
510.333	8317.56
510.435	8409.56
510.537	8540.56
510.639	8593.56
510.741	8378.56
510.843	8405.56
510.945	8377.56
511.047	8553.56
511.148	8447.56
511.25	8435.56
511.352	8496.56
511.454	8472.56
511.556	8467.56
511.658	8444.56
511.76	8464.56
511.861	8605.56
511.963	8436.56
512.065	8581.56
512.167	8348.56
512.268	8894.56
512.37	8495.56
512.472	8475.56
512.574	8547.56
512.676	8664.56
512.777	8520.56
512.879	8443.56
512.981	8596.56
513.082	8468.56
513.184	8565.56
513.286	9021.56
513.387	8697.56
513.489	8813.56
513.591	8631.56
513.692	8720.56
513.794	8799.56
513.896	8667.56
513.997	8658.56
514.099	8690.56
514.2	8798.56
514.302	8842.56
514.404	8724.56
514.505	8819.56
514.607	8981.56
514.708	9018.56
514.81	9092.56
514.911	9052.56
515.013	9083.56
515.114	9221.56
515.216	9176.56
515.317	9261.56
515.419	9342.56
515.52	9469.56
515.622	9402.56
515.723	9456.56
515.825	9704.56
515.926	9741.56
516.027	9767.56
516.129	9884.56
516.23	10088.56
516.332	10048.56
516.433	10361.56
516.534	10643.56
516.636	10570.56
516.737	10699.56
516.838	11944.56
516.94	11287.56
517.041	11220.56
517.142	11719.56
517.244	11861.56
517.345	11636.56
517.446	11995.56
517.547	12058.56
517.649	11998.56
517.75	11956.56
517.851	11864.56
517.952	12060.56
518.054	11820.56
518.155	11691.56
518.256	11401.56
518.357	11445.56
518.458	11157.56
518.56	11102.56
518.661	11056.56
518.762	10888.56
518.863	11070.56
518.964	10718.56
519.065	10559.56
519.166	10581.56
519.268	10320.56
519.369	10644.56
519.47	10176.56
519.571	10293.56
519.672	10200.56
519.773	10208.56
519.874	10167.56
519.975	10038.56
520.076	10061.56
520.177	10113.56
520.278	10031.56
520.379	9868.56
520.48	9901.56
520.581	9767.56
520.682	9629.56
520.783	9845.56
520.884	9887.56
520.985	9731.56
521.086	9787.56
521.187	9755.56
521.288	9575.56
521.389	9644.56
521.489	9640.56
521.59	9517.56
521.691	9634.56
521.792	9543.56
521.893	9705.56
521.994	9718.56
522.095	9593.56
522.195	9647.56
522.296	9692.56
522.397	9709.56
522.498	9600.56
522.599	9413.56
522.699	9626.56
522.8	9520.56
522.901	9701.56
523.002	9495.56
523.102	9846.56
523.203	9727.56
523.304	9904.56
523.405	9663.56
523.505	9684.56
523.606	9538.56
523.707	9685.56
523.807	9593.56
523.908	9662.56
524.009	9798.56
524.109	9578.56
524.21	9627.56
524.31	9798.56
524.411	9816.56
524.512	9783.56
524.612	9791.56
524.713	9865.56
524.813	9621.56
524.914	9982.56
525.014	14561.56
525.115	10101.56
525.216	9692.56
525.316	9670.56
525.417	9658.56
525.517	9630.56
525.618	9751.56
525.718	9712.56
525.819	9597.56
525.919	9701.56
526.019	9714.56
526.12	9689.56
526.22	9559.56
526.321	9562.56
526.421	9628.56
526.522	9678.56
526.622	9347.56
526.722	9629.56
526.823	9635.56
526.923	9658.56
527.023	9735.56
527.124	9461.56
527.224	9622.56
527.324	9599.56
527.425	9593.56
527.525	9403.56
527.625	9594.56
527.726	9537.56
527.826	9732.56
527.926	9473.56
528.026	9746.56
528.127	9597.56
528.227	9594.56
528.327	9677.56
528.427	9556.56
528.528	9596.56
528.628	9703.56
528.728	9544.56
528.828	9640.56
528.928	9667.56
529.029	9578.56
529.129	9589.56
529.229	9674.56
529.329	9612.56
529.429	9656.56
529.529	9606.56
529.629	9568.56
529.729	9484.56
529.829	9469.56
529.93	9447.56
530.03	9427.56
530.13	9409.56
530.23	9348.56
530.33	9352.56
530.43	9323.56
530.53	9326.56
530.63	9263.56
530.73	9146.56
530.83	9163.56
530.93	9192.56
531.03	9168.56
531.13	9264.56
531.23	9271.56
531.33	9246.56
531.429	9133.56
531.529	9164.56
531.629	9133.56
531.729	8991.56
531.829	8970.56
531.929	9094.56
532.029	9006.56
532.129	8989.56
532.229	9085.56
532.328	8865.56
532.428	8809.56
532.528	8924.56
532.628	8826.56
532.728	8800.56
532.827	8803.56
532.927	8951.56
533.027	8704.56
533.127	9076.56
533.227	8932.56
533.326	8847.56
533.426	8840.56
533.526	8853.56
533.625	8850.56
533.725	8996.56
533.825	8736.56
533.924	8537.56
534.024	8510.56
534.124	8560.56
534.223	8596.56
534.323	8774.56
534.423	8462.56
534.522	8484.56
534.622	8342.56
534.722	8314.56
534.821	8396.56
