Data from 14g_HRC06701__28__211.txt Node

Date: Thu Apr 18 01:58:22 CDT 2024
User: Estudiantes 2
Spectrometer: HR+C0670
Trigger mode: 4
Integration Time (sec): 1.000000E0
Scans to average: 1
Electric dark correction enabled: true
Nonlinearity correction enabled: false
Boxcar width: 0
XAxis mode: Wavelengths
Number of Pixels in Spectrum: 2048
>>>>>Begin Spectral Data<<<<<
407.81	-137.12
407.921	-137.12
408.032	-137.12
408.143	-116.12
408.254	-123.12
408.365	34.88
408.476	280.88
408.587	-41.12
408.699	-23.12
408.81	-7.12
408.921	-69.12
409.032	-28.12
409.143	57.88
409.254	14.88
409.365	67.88
409.476	-2.12
409.587	39.88
409.698	50.88
409.809	80.88
409.92	25.88
410.031	-44.12
410.142	89.88
410.253	51.88
410.364	32.88
410.475	490.88
410.585	2419.88
410.696	2549.88
410.807	2561.88
410.918	2501.88
411.029	2614.88
411.14	2617.88
411.251	2531.88
411.362	2690.88
411.472	2687.88
411.583	2562.88
411.694	2731.88
411.805	2568.88
411.916	2659.88
412.026	2762.88
412.137	2621.88
412.248	2607.88
412.359	2673.88
412.47	2583.88
412.58	2579.88
412.691	2582.88
412.802	2576.88
412.912	2573.88
413.023	2570.88
413.134	2642.88
413.245	2660.88
413.355	2573.88
413.466	2540.88
413.577	2520.88
413.687	2623.88
413.798	2442.88
413.909	2658.88
414.019	2558.88
414.13	2571.88
414.24	2561.88
414.351	2659.88
414.462	2820.88
414.572	2669.88
414.683	2624.88
414.793	2611.88
414.904	2968.88
415.014	2582.88
415.125	2565.88
415.235	2686.88
415.346	2717.88
415.456	2724.88
415.567	2539.88
415.677	2601.88
415.788	2576.88
415.898	2583.88
416.009	2544.88
416.119	2570.88
416.23	2522.88
416.34	2546.88
416.45	2618.88
416.561	3334.88
416.671	2686.88
416.782	2627.88
416.892	2565.88
417.002	2627.88
417.113	2752.88
417.223	2658.88
417.333	2560.88
417.444	2690.88
417.554	2744.88
417.664	2718.88
417.775	2676.88
417.885	2762.88
417.995	2728.88
418.106	2999.88
418.216	2842.88
418.326	2828.88
418.436	2934.88
418.547	2887.88
418.657	2837.88
418.767	2998.88
418.877	3015.88
418.987	2969.88
419.098	2909.88
419.208	2975.88
419.318	3039.88
419.428	3008.88
419.538	2940.88
419.648	3004.88
419.759	2958.88
419.869	2933.88
419.979	2981.88
420.089	3033.88
420.199	2932.88
420.309	2991.88
420.419	2921.88
420.529	3030.88
420.639	3522.88
420.749	3071.88
420.859	2999.88
420.969	3112.88
421.079	3339.88
421.189	3119.88
421.299	3107.88
421.409	3087.88
421.519	3085.88
421.629	3198.88
421.739	3113.88
421.849	3094.88
421.959	3085.88
422.069	3238.88
422.179	3135.88
422.289	3128.88
422.399	3299.88
422.509	3421.88
422.619	5785.88
422.729	3565.88
422.838	3331.88
422.948	3388.88
423.058	3330.88
423.168	3428.88
423.278	3374.88
423.388	3434.88
423.498	3604.88
423.607	3538.88
423.717	3800.88
423.827	3914.88
423.937	3626.88
424.046	3695.88
424.156	3721.88
424.266	3703.88
424.376	3920.88
424.485	3832.88
424.595	3763.88
424.705	3689.88
424.815	3734.88
424.924	4174.88
425.034	3770.88
425.144	3676.88
425.253	3827.88
425.363	3910.88
425.473	3922.88
425.582	3815.88
425.692	3877.88
425.801	3814.88
425.911	4086.88
426.021	4057.88
426.13	4088.88
426.24	4084.88
426.349	4073.88
426.459	4002.88
426.568	3992.88
426.678	4124.88
426.787	4068.88
426.897	4099.88
427.006	4111.88
427.116	4239.88
427.225	4008.88
427.335	4240.88
427.444	4109.88
427.554	4166.88
427.663	4189.88
427.773	4331.88
427.882	4313.88
427.992	4290.88
428.101	4267.88
428.21	4266.88
428.32	4364.88
428.429	4282.88
428.539	4638.88
428.648	4350.88
428.757	4398.88
428.867	4570.88
428.976	4646.88
429.085	4487.88
429.195	4539.88
429.304	4515.88
429.413	4583.88
429.523	4671.88
429.632	4667.88
429.741	4623.88
429.85	4526.88
429.96	4589.88
430.069	4562.88
430.178	4737.88
430.287	4994.88
430.397	4633.88
430.506	4719.88
430.615	4731.88
430.724	4793.88
430.833	4841.88
430.943	4791.88
431.052	4845.88
431.161	4766.88
431.27	4992.88
431.379	4889.88
431.488	5221.88
431.597	5012.88
431.706	5186.88
431.816	5022.88
431.925	5060.88
432.034	5033.88
432.143	5109.88
432.252	5085.88
432.361	5125.88
432.47	5103.88
432.579	5147.88
432.688	5047.88
432.797	5180.88
432.906	5044.88
433.015	5151.88
433.124	5509.88
433.233	5151.88
433.342	5160.88
433.451	5251.88
433.56	5151.88
433.669	5316.88
433.778	5180.88
433.886	5256.88
433.995	5247.88
434.104	5375.88
434.213	5347.88
434.322	5384.88
434.431	5638.88
434.54	5703.88
434.649	5746.88
434.757	5739.88
434.866	5650.88
434.975	5576.88
435.084	5519.88
435.193	5469.88
435.301	5513.88
435.41	5547.88
435.519	5657.88
435.628	5089.88
435.737	4920.88
435.845	4954.88
435.954	4881.88
436.063	4819.88
436.171	4867.88
436.28	4971.88
436.389	5009.88
436.498	4839.88
436.606	4816.88
436.715	5086.88
436.823	4722.88
436.932	4636.88
437.041	4681.88
437.149	4699.88
437.258	4584.88
437.367	4518.88
437.475	4571.88
437.584	4766.88
437.692	4590.88
437.801	6074.88
437.91	4574.88
438.018	4447.88
438.127	4433.88
438.235	4504.88
438.344	4563.88
438.452	4453.88
438.561	4387.88
438.669	4346.88
438.778	4344.88
438.886	4397.88
438.995	4263.88
439.103	4404.88
439.212	4350.88
439.32	4514.88
439.428	4422.88
439.537	4347.88
439.645	4543.88
439.754	4531.88
439.862	4339.88
439.97	4446.88
440.079	4515.88
440.187	4496.88
440.295	4623.88
440.404	4476.88
440.512	4597.88
440.62	4599.88
440.729	4638.88
440.837	4731.88
440.945	5409.88
441.054	4889.88
441.162	4780.88
441.27	4983.88
441.378	4904.88
441.487	4938.88
441.595	5336.88
441.703	5071.88
441.811	4877.88
441.92	4827.88
442.028	4658.88
442.136	4865.88
442.244	4847.88
442.352	4798.88
442.461	4621.88
442.569	4749.88
442.677	4825.88
442.785	4786.88
442.893	4720.88
443.001	4739.88
443.109	4710.88
443.217	4715.88
443.325	4703.88
443.434	5287.88
443.542	5065.88
443.65	4799.88
443.758	4976.88
443.866	4867.88
443.974	5296.88
444.082	5071.88
444.19	5165.88
444.298	5226.88
444.406	5388.88
444.514	5473.88
444.622	5523.88
444.73	5617.88
444.838	5435.88
444.946	5437.88
445.054	5268.88
445.161	5190.88
445.269	4988.88
445.377	5065.88
445.485	4952.88
445.593	4945.88
445.701	5112.88
445.809	4960.88
445.917	4888.88
446.025	4809.88
446.132	5017.88
446.24	4912.88
446.348	4882.88
446.456	4802.88
446.564	4771.88
446.671	4771.88
446.779	4740.88
446.887	4655.88
446.995	4707.88
447.102	4758.88
447.21	4727.88
447.318	4793.88
447.426	4669.88
447.533	4992.88
447.641	5801.88
447.749	4811.88
447.856	4828.88
447.964	4633.88
448.072	4845.88
448.179	4764.88
448.287	4841.88
448.395	4809.88
448.502	4768.88
448.61	4783.88
448.718	4710.88
448.825	4759.88
448.933	4870.88
449.04	4827.88
449.148	4778.88
449.256	4956.88
449.363	4817.88
449.471	4921.88
449.578	5007.88
449.686	4897.88
449.793	5180.88
449.901	4985.88
450.008	5148.88
450.116	5158.88
450.223	5034.88
450.331	5359.88
450.438	5380.88
450.546	5354.88
450.653	5467.88
450.76	5406.88
450.868	5402.88
450.975	5635.88
451.083	5423.88
451.19	5533.88
451.297	5413.88
451.405	5587.88
451.512	5479.88
451.619	5590.88
451.727	5705.88
451.834	5518.88
451.941	5658.88
452.049	5557.88
452.156	5559.88
452.263	5761.88
452.371	5792.88
452.478	5807.88
452.585	5853.88
452.692	5732.88
452.8	5785.88
452.907	5935.88
453.014	5826.88
453.121	5996.88
453.229	5961.88
453.336	6046.88
453.443	6015.88
453.55	5863.88
453.657	5927.88
453.765	6004.88
453.872	5933.88
453.979	6040.88
454.086	6088.88
454.193	6215.88
454.3	5978.88
454.407	6160.88
454.514	6258.88
454.621	6006.88
454.729	6116.88
454.836	6303.88
454.943	6224.88
455.05	6168.88
455.157	6332.88
455.264	6291.88
455.371	6285.88
455.478	6330.88
455.585	6645.88
455.692	6396.88
455.799	6518.88
455.906	6456.88
456.013	6351.88
456.12	6392.88
456.227	6513.88
456.334	6470.88
456.44	6695.88
456.547	6627.88
456.654	6520.88
456.761	6662.88
456.868	6690.88
456.975	6814.88
457.082	6675.88
457.189	6581.88
457.296	6788.88
457.402	6788.88
457.509	6855.88
457.616	6967.88
457.723	7164.88
457.83	7006.88
457.936	6995.88
458.043	7440.88
458.15	7178.88
458.257	7299.88
458.363	7468.88
458.47	7416.88
458.577	7631.88
458.684	7584.88
458.79	7748.88
458.897	7795.88
459.004	8059.88
459.11	8062.88
459.217	8061.88
459.324	8183.88
459.43	8371.88
459.537	8490.88
459.644	8450.88
459.75	8458.88
459.857	9085.88
459.964	8679.88
460.07	8736.88
460.177	8804.88
460.283	9004.88
460.39	9255.88
460.496	8979.88
460.603	8983.88
460.71	9059.88
460.816	9001.88
460.923	8927.88
461.029	9007.88
461.136	9095.88
461.242	8935.88
461.349	8962.88
461.455	9059.88
461.562	9283.88
461.668	9222.88
461.774	9203.88
461.881	9246.88
461.987	9386.88
462.094	9637.88
462.2	9607.88
462.307	9467.88
462.413	9621.88
462.519	9858.88
462.626	10330.88
462.732	10320.88
462.838	10812.88
462.945	10933.88
463.051	10963.88
463.157	10940.88
463.264	10483.88
463.37	10277.88
463.476	10052.88
463.583	10010.88
463.689	9810.88
463.795	9861.88
463.901	9879.88
464.008	10037.88
464.114	9856.88
464.22	9871.88
464.326	9912.88
464.433	9651.88
464.539	9577.88
464.645	9133.88
464.751	9201.88
464.857	8943.88
464.963	8562.88
465.07	8532.88
465.176	8179.88
465.282	8019.88
465.388	8003.88
465.494	7659.88
465.6	7582.88
465.706	7290.88
465.812	7204.88
465.918	7385.88
466.024	7108.88
466.131	7130.88
466.237	6970.88
466.343	6810.88
466.449	6648.88
466.555	6651.88
466.661	6481.88
466.767	6477.88
466.873	6484.88
466.979	6624.88
467.085	6413.88
467.191	6414.88
467.296	6436.88
467.402	6279.88
467.508	6368.88
467.614	6413.88
467.72	6017.88
467.826	6006.88
467.932	5929.88
468.038	5935.88
468.144	5892.88
468.25	5808.88
468.355	5856.88
468.461	5846.88
468.567	5770.88
468.673	5763.88
468.779	5735.88
468.885	5653.88
468.99	5720.88
469.096	5834.88
469.202	5831.88
469.308	5806.88
469.413	5906.88
469.519	5877.88
469.625	5868.88
469.731	5848.88
469.836	5803.88
469.942	6063.88
470.048	6015.88
470.153	5786.88
470.259	5923.88
470.365	6009.88
470.47	5882.88
470.576	5797.88
470.682	5778.88
470.787	5760.88
470.893	5631.88
470.999	5621.88
471.104	5655.88
471.21	5386.88
471.315	5317.88
471.421	5413.88
471.527	5534.88
471.632	5382.88
471.738	5352.88
471.843	5173.88
471.949	5210.88
472.054	5161.88
472.16	5097.88
472.265	5143.88
472.371	5159.88
472.476	5212.88
472.582	5155.88
472.687	4879.88
472.793	4956.88
472.898	4995.88
473.003	4914.88
473.109	4784.88
473.214	4734.88
473.32	4830.88
473.425	4953.88
473.53	4861.88
473.636	4738.88
473.741	4770.88
473.847	4743.88
473.952	4838.88
474.057	4703.88
474.163	4923.88
474.268	4758.88
474.373	4824.88
474.478	4749.88
474.584	4740.88
474.689	4710.88
474.794	4866.88
474.9	5075.88
475.005	4792.88
475.11	4943.88
475.215	4782.88
475.321	4745.88
475.426	4909.88
475.531	4852.88
475.636	4775.88
475.741	4662.88
475.846	5007.88
475.952	5010.88
476.057	4922.88
476.162	4974.88
476.267	5068.88
476.372	5162.88
476.477	4843.88
476.582	5024.88
476.687	4933.88
476.793	4911.88
476.898	5064.88
477.003	5026.88
477.108	5055.88
477.213	5144.88
477.318	5094.88
477.423	5214.88
477.528	5308.88
477.633	5315.88
477.738	5267.88
477.843	5265.88
477.948	5389.88
478.053	5415.88
478.158	5389.88
478.263	5518.88
478.368	5454.88
478.473	5600.88
478.578	5692.88
478.682	5534.88
478.787	5695.88
478.892	5704.88
478.997	5631.88
479.102	5500.88
479.207	5640.88
479.312	5864.88
479.417	5740.88
479.521	5748.88
479.626	5957.88
479.731	5825.88
479.836	5871.88
479.941	6098.88
480.045	5995.88
480.15	6121.88
480.255	6158.88
480.36	6100.88
480.465	6177.88
480.569	6414.88
480.674	6011.88
480.779	5917.88
480.883	5956.88
480.988	5988.88
481.093	5930.88
481.197	5920.88
481.302	5933.88
481.407	5939.88
481.511	7114.88
481.616	6066.88
481.721	5866.88
481.825	6158.88
481.93	5831.88
482.035	5870.88
482.139	6001.88
482.244	5878.88
482.348	5980.88
482.453	5956.88
482.557	6017.88
482.662	6022.88
482.767	5884.88
482.871	5979.88
482.976	6044.88
483.08	6133.88
483.185	6261.88
483.289	6195.88
483.394	6272.88
483.498	6320.88
483.603	6246.88
483.707	6387.88
483.811	6438.88
483.916	6508.88
484.02	6498.88
484.125	6532.88
484.229	6521.88
484.333	6748.88
484.438	6529.88
484.542	6637.88
484.647	6624.88
484.751	6707.88
484.855	6775.88
484.96	6735.88
485.064	6893.88
485.168	6918.88
485.273	6973.88
485.377	7062.88
485.481	7099.88
485.585	7061.88
485.69	7216.88
485.794	7153.88
485.898	7184.88
486.002	7199.88
486.107	7184.88
486.211	7104.88
486.315	7246.88
486.419	7291.88
486.524	7333.88
486.628	7186.88
486.732	7280.88
486.836	7120.88
486.94	7378.88
487.044	7309.88
487.148	7207.88
487.253	7205.88
487.357	7224.88
487.461	7448.88
487.565	7384.88
487.669	7292.88
487.773	7150.88
487.877	7314.88
487.981	7450.88
488.085	7394.88
488.189	7255.88
488.293	7481.88
488.397	7803.88
488.501	7338.88
488.605	7268.88
488.709	7356.88
488.813	7370.88
488.917	7316.88
489.021	7225.88
489.125	7703.88
489.229	7319.88
489.333	7549.88
489.437	7438.88
489.541	7290.88
489.645	7311.88
489.749	7461.88
489.853	7467.88
489.956	7444.88
490.06	7505.88
490.164	7520.88
490.268	7438.88
490.372	7477.88
490.476	7484.88
490.579	7465.88
490.683	8193.88
490.787	7575.88
490.891	7498.88
490.995	7569.88
491.098	7466.88
491.202	7495.88
491.306	7624.88
491.41	7451.88
491.513	7503.88
491.617	7388.88
491.721	7563.88
491.824	7576.88
491.928	7423.88
492.032	7755.88
492.136	7450.88
492.239	7359.88
492.343	7564.88
492.446	7991.88
492.55	7479.88
492.654	7408.88
492.757	7572.88
492.861	7506.88
492.965	7387.88
493.068	7487.88
493.172	7510.88
493.275	7479.88
493.379	7499.88
493.482	7665.88
493.586	7700.88
493.689	7658.88
493.793	7535.88
493.896	7641.88
494	7682.88
494.103	7673.88
494.207	7823.88
494.31	7855.88
494.414	7655.88
494.517	7582.88
494.621	7503.88
494.724	7472.88
494.828	7458.88
494.931	7420.88
495.034	7411.88
495.138	7702.88
495.241	7383.88
495.345	8224.88
495.448	7567.88
495.551	7409.88
495.655	7370.88
495.758	7324.88
495.861	7307.88
495.965	7387.88
496.068	7475.88
496.171	7412.88
496.274	7487.88
496.378	7443.88
496.481	7500.88
496.584	7535.88
496.687	7590.88
496.791	7533.88
496.894	7600.88
496.997	7658.88
497.1	7695.88
497.204	7736.88
497.307	7703.88
497.41	8037.88
497.513	8153.88
497.616	7898.88
497.719	8045.88
497.823	8195.88
497.926	8255.88
498.029	8295.88
498.132	8564.88
498.235	8798.88
498.338	8833.88
498.441	8972.88
498.544	9030.88
498.647	9311.88
498.75	9637.88
498.853	10065.88
498.956	10069.88
499.059	10630.88
499.163	10731.88
499.266	10992.88
499.369	11379.88
499.471	11742.88
499.574	12202.88
499.677	12615.88
499.78	13159.88
499.883	13704.88
499.986	14197.88
500.089	14559.88
500.192	14560.88
500.295	14560.88
500.398	14560.88
500.501	14560.88
500.604	14415.88
500.707	13863.88
500.809	13501.88
500.912	12994.88
501.015	12653.88
501.118	11895.88
501.221	11551.88
501.324	10970.88
501.426	10554.88
501.529	10148.88
501.632	9770.88
501.735	9552.88
501.837	9305.88
501.94	8999.88
502.043	8839.88
502.146	8719.88
502.248	8578.88
502.351	8239.88
502.454	8017.88
502.557	7994.88
502.659	7623.88
502.762	7517.88
502.865	7462.88
502.967	7208.88
503.07	7185.88
503.173	7116.88
503.275	6937.88
503.378	6902.88
503.48	6853.88
503.583	6924.88
503.686	6698.88
503.788	6921.88
503.891	6719.88
503.993	6829.88
504.096	6755.88
504.198	6764.88
504.301	6502.88
504.403	6646.88
504.506	6635.88
504.608	6520.88
504.711	6335.88
504.813	6425.88
504.916	6173.88
505.018	5981.88
505.121	5884.88
505.223	5959.88
505.326	5761.88
505.428	5815.88
505.531	5699.88
505.633	5599.88
505.735	5467.88
505.838	5470.88
505.94	5416.88
506.042	5325.88
506.145	5311.88
506.247	5385.88
506.35	5306.88
506.452	5310.88
506.554	5218.88
506.656	5143.88
506.759	5183.88
506.861	5211.88
506.963	5027.88
507.066	5088.88
507.168	5138.88
507.27	5072.88
507.372	4959.88
507.475	5001.88
507.577	5010.88
507.679	4985.88
507.781	4869.88
507.883	5003.88
507.986	4846.88
508.088	4920.88
508.19	4959.88
508.292	4845.88
508.394	4844.88
508.496	4814.88
508.598	4800.88
508.701	4712.88
508.803	4731.88
508.905	4712.88
509.007	4618.88
509.109	4817.88
509.211	4680.88
509.313	4683.88
509.415	4657.88
509.517	4719.88
509.619	4602.88
509.721	4663.88
509.823	4545.88
509.925	4790.88
510.027	4616.88
510.129	4650.88
510.231	4586.88
510.333	4590.88
510.435	4617.88
510.537	4691.88
510.639	4642.88
510.741	4625.88
510.843	4743.88
510.945	4550.88
511.047	4687.88
511.148	4657.88
511.25	4572.88
511.352	4620.88
511.454	4599.88
511.556	4691.88
511.658	4606.88
511.76	4698.88
511.861	4838.88
511.963	4508.88
512.065	4606.88
512.167	4623.88
512.268	4836.88
512.37	4695.88
512.472	4735.88
512.574	4698.88
512.676	4679.88
512.777	4608.88
512.879	4560.88
512.981	4537.88
513.082	4693.88
513.184	4643.88
513.286	5101.88
513.387	4831.88
513.489	4820.88
513.591	4681.88
513.692	4827.88
513.794	4807.88
513.896	4600.88
513.997	4654.88
514.099	4781.88
514.2	4816.88
514.302	4827.88
514.404	4777.88
514.505	4844.88
514.607	4926.88
514.708	4822.88
514.81	4956.88
514.911	4866.88
515.013	5062.88
515.114	5168.88
515.216	4953.88
515.317	4982.88
515.419	5052.88
515.52	5211.88
515.622	5056.88
515.723	5150.88
515.825	5319.88
515.926	5191.88
516.027	5278.88
516.129	5399.88
516.23	5485.88
516.332	5485.88
516.433	5602.88
516.534	5637.88
516.636	5689.88
516.737	5864.88
516.838	7033.88
516.94	6134.88
517.041	6161.88
517.142	6409.88
517.244	6369.88
517.345	6375.88
517.446	6489.88
517.547	6611.88
517.649	6499.88
517.75	6611.88
517.851	6428.88
517.952	6715.88
518.054	6387.88
518.155	6472.88
518.256	6101.88
518.357	6339.88
518.458	6077.88
518.56	6147.88
518.661	5955.88
518.762	5976.88
518.863	5967.88
518.964	5930.88
519.065	5661.88
519.166	5796.88
519.268	5642.88
519.369	5933.88
519.47	5577.88
519.571	5626.88
519.672	5586.88
519.773	5404.88
519.874	5580.88
519.975	5522.88
520.076	5454.88
520.177	5544.88
520.278	5426.88
520.379	5328.88
520.48	5281.88
520.581	5294.88
520.682	5280.88
520.783	5215.88
520.884	5357.88
520.985	5302.88
521.086	5300.88
521.187	5350.88
521.288	5203.88
521.389	5401.88
521.489	5250.88
521.59	5165.88
521.691	5293.88
521.792	5160.88
521.893	5268.88
521.994	5410.88
522.095	5264.88
522.195	5299.88
522.296	5361.88
522.397	5264.88
522.498	5107.88
522.599	5165.88
522.699	5194.88
522.8	5234.88
522.901	5345.88
523.002	5275.88
523.102	5335.88
523.203	5215.88
523.304	5451.88
523.405	5168.88
523.505	5176.88
523.606	5326.88
523.707	5203.88
523.807	5206.88
523.908	5318.88
524.009	5406.88
524.109	5178.88
524.21	5206.88
524.31	5359.88
524.411	5381.88
524.512	5418.88
524.612	5361.88
524.713	5355.88
524.813	5219.88
524.914	5499.88
525.014	10700.88
525.115	5621.88
525.216	5149.88
525.316	5324.88
525.417	5303.88
525.517	5242.88
525.618	5413.88
525.718	5209.88
525.819	5212.88
525.919	5331.88
526.019	5161.88
526.12	5220.88
526.22	5126.88
526.321	5179.88
526.421	5263.88
526.522	5110.88
526.622	5179.88
526.722	5093.88
526.823	5225.88
526.923	5285.88
527.023	5286.88
527.124	5158.88
527.224	5276.88
527.324	5031.88
527.425	5135.88
527.525	5119.88
527.625	5082.88
527.726	5136.88
527.826	5250.88
527.926	5235.88
528.026	5096.88
528.127	5103.88
528.227	5235.88
528.327	5238.88
528.427	5125.88
528.528	5294.88
528.628	5307.88
528.728	5154.88
528.828	5295.88
528.928	5258.88
529.029	5084.88
529.129	5144.88
529.229	5221.88
529.329	5067.88
529.429	5187.88
529.529	5262.88
529.629	5092.88
529.729	5055.88
529.829	5219.88
529.93	5077.88
530.03	5108.88
530.13	5044.88
530.23	5000.88
530.33	5064.88
530.43	5051.88
530.53	5060.88
530.63	4888.88
530.73	4907.88
530.83	4936.88
530.93	4863.88
531.03	4888.88
531.13	5038.88
531.23	4860.88
531.33	4969.88
531.429	5010.88
531.529	4939.88
531.629	4903.88
531.729	4862.88
531.829	4831.88
531.929	4821.88
532.029	4937.88
532.129	4842.88
532.229	4880.88
532.328	4922.88
532.428	4812.88
532.528	4648.88
532.628	4810.88
532.728	4838.88
532.827	4662.88
532.927	4797.88
533.027	4812.88
533.127	4966.88
533.227	4794.88
533.326	4812.88
533.426	4742.88
533.526	4860.88
533.625	4844.88
533.725	4990.88
533.825	4695.88
533.924	4480.88
534.024	4553.88
534.124	4542.88
534.223	4529.88
534.323	5010.88
534.423	4571.88
534.522	4591.88
534.622	4514.88
534.722	4476.88
534.821	4462.88
534.921	4427.88
535.02	4433.88
535.12	4494.88
535.219	4561.88
535.319	4583.88
535.419	4433.88
535.518	4366.88
535.618	4344.88
535.717	4375.88
535.817	4187.88
535.916	4161.88
536.016	4348.88
536.115	4172.88
536.215	4239.88
536.314	4227.88
536.413	3995.88
536.513	4122.88
536.612	4142.88
536.712	3992.88
536.811	4075.88
536.91	3975.88
537.01	3980.88
537.109	4108.88
537.209	4077.88
537.308	4053.88
537.407	4065.88
537.507	3935.88
537.606	4084.88
537.705	4072.88
