Data from 14g_HRC06701__29__212.txt Node

Date: Thu Apr 18 01:58:23 CDT 2024
User: Estudiantes 2
Spectrometer: HR+C0670
Trigger mode: 4
Integration Time (sec): 1.000000E0
Scans to average: 1
Electric dark correction enabled: true
Nonlinearity correction enabled: false
Boxcar width: 0
XAxis mode: Wavelengths
Number of Pixels in Spectrum: 2048
>>>>>Begin Spectral Data<<<<<
407.81	-132.25
407.921	-132.25
408.032	-132.25
408.143	-124.25
408.254	-118.25
408.365	36.75
408.476	255.75
408.587	4.75
408.699	-0.25
408.81	-49.25
408.921	-41.25
409.032	-5.25
409.143	35.75
409.254	-7.25
409.365	101.75
409.476	-32.25
409.587	-6.25
409.698	81.75
409.809	58.75
409.92	-34.25
410.031	5.75
410.142	77.75
410.253	8.75
410.364	16.75
410.475	938.75
410.585	4307.75
410.696	4649.75
410.807	4601.75
410.918	4512.75
411.029	4640.75
411.14	4755.75
411.251	4714.75
411.362	4636.75
411.472	4725.75
411.583	4785.75
411.694	4893.75
411.805	4755.75
411.916	4969.75
412.026	4906.75
412.137	4896.75
412.248	4860.75
412.359	4852.75
412.47	4629.75
412.58	4685.75
412.691	4708.75
412.802	4707.75
412.912	4690.75
413.023	4747.75
413.134	4663.75
413.245	4658.75
413.355	4662.75
413.466	4634.75
413.577	4582.75
413.687	4805.75
413.798	4562.75
413.909	4654.75
414.019	4823.75
414.13	4791.75
414.24	4745.75
414.351	4926.75
414.462	5069.75
414.572	4831.75
414.683	4815.75
414.793	4797.75
414.904	5050.75
415.014	4692.75
415.125	4729.75
415.235	4731.75
415.346	4834.75
415.456	4898.75
415.567	4671.75
415.677	4678.75
415.788	4820.75
415.898	4678.75
416.009	4609.75
416.119	4721.75
416.23	4773.75
416.34	4522.75
416.45	4684.75
416.561	5652.75
416.671	4780.75
416.782	4612.75
416.892	4791.75
417.002	4751.75
417.113	4970.75
417.223	4870.75
417.333	4882.75
417.444	4886.75
417.554	4978.75
417.664	5062.75
417.775	4861.75
417.885	5006.75
417.995	5043.75
418.106	5230.75
418.216	5162.75
418.326	5312.75
418.436	5308.75
418.547	5315.75
418.657	5383.75
418.767	5492.75
418.877	5461.75
418.987	5426.75
419.098	5470.75
419.208	5444.75
419.318	5453.75
419.428	5637.75
419.538	5467.75
419.648	5524.75
419.759	5498.75
419.869	5436.75
419.979	5487.75
420.089	5559.75
420.199	5567.75
420.309	5372.75
420.419	5474.75
420.529	5559.75
420.639	6037.75
420.749	5591.75
420.859	5669.75
420.969	5685.75
421.079	5917.75
421.189	5642.75
421.299	5486.75
421.409	5681.75
421.519	5808.75
421.629	5815.75
421.739	5731.75
421.849	5953.75
421.959	5844.75
422.069	5869.75
422.179	5841.75
422.289	5974.75
422.399	6027.75
422.509	6149.75
422.619	8854.75
422.729	6401.75
422.838	6165.75
422.948	6334.75
423.058	6292.75
423.168	6391.75
423.278	6514.75
423.388	6438.75
423.498	6687.75
423.607	6662.75
423.717	6919.75
423.827	6987.75
423.937	6819.75
424.046	6757.75
424.156	6948.75
424.266	6731.75
424.376	7123.75
424.485	6956.75
424.595	6911.75
424.705	6917.75
424.815	6982.75
424.924	7418.75
425.034	7019.75
425.144	6991.75
425.253	6981.75
425.363	7139.75
425.473	7252.75
425.582	6996.75
425.692	7055.75
425.801	7125.75
425.911	7246.75
426.021	7273.75
426.13	7424.75
426.24	7463.75
426.349	7354.75
426.459	7307.75
426.568	7271.75
426.678	7423.75
426.787	7504.75
426.897	7455.75
427.006	7465.75
427.116	7563.75
427.225	7627.75
427.335	7704.75
427.444	7606.75
427.554	7524.75
427.663	7624.75
427.773	7779.75
427.882	7907.75
427.992	7756.75
428.101	7781.75
428.21	7859.75
428.32	8047.75
428.429	7800.75
428.539	8189.75
428.648	8004.75
428.757	8002.75
428.867	8025.75
428.976	8337.75
429.085	8144.75
429.195	8224.75
429.304	8215.75
429.413	8279.75
429.523	8392.75
429.632	8316.75
429.741	8341.75
429.85	8250.75
429.96	8437.75
430.069	8482.75
430.178	8411.75
430.287	8765.75
430.397	8562.75
430.506	8611.75
430.615	8646.75
430.724	8801.75
430.833	8656.75
430.943	8775.75
431.052	8795.75
431.161	9041.75
431.27	9063.75
431.379	9098.75
431.488	9713.75
431.597	9453.75
431.706	9317.75
431.816	9356.75
431.925	9465.75
432.034	9324.75
432.143	9443.75
432.252	9341.75
432.361	9344.75
432.47	9367.75
432.579	9269.75
432.688	9251.75
432.797	9341.75
432.906	9331.75
433.015	9404.75
433.124	9632.75
433.233	9540.75
433.342	9307.75
433.451	9439.75
433.56	9445.75
433.669	9511.75
433.778	9389.75
433.886	9607.75
433.995	9812.75
434.104	9950.75
434.213	9905.75
434.322	10035.75
434.431	10316.75
434.54	10452.75
434.649	10670.75
434.757	10715.75
434.866	10404.75
434.975	10508.75
435.084	10224.75
435.193	9995.75
435.301	10010.75
435.41	10149.75
435.519	9901.75
435.628	9357.75
435.737	9146.75
435.845	9108.75
435.954	9057.75
436.063	9029.75
436.171	9062.75
436.28	9002.75
436.389	9229.75
436.498	9029.75
436.606	9010.75
436.715	9128.75
436.823	8918.75
436.932	8643.75
437.041	8564.75
437.149	8666.75
437.258	8484.75
437.367	8260.75
437.475	8432.75
437.584	8686.75
437.692	8195.75
437.801	9810.75
437.91	8435.75
438.018	8201.75
438.127	8002.75
438.235	8344.75
438.344	8237.75
438.452	8198.75
438.561	8156.75
438.669	8082.75
438.778	7949.75
438.886	8182.75
438.995	7993.75
439.103	8116.75
439.212	8190.75
439.32	8339.75
439.428	8118.75
439.537	8299.75
439.645	8419.75
439.754	8409.75
439.862	8102.75
439.97	8275.75
440.079	8305.75
440.187	8244.75
440.295	8590.75
440.404	8385.75
440.512	8526.75
440.62	8537.75
440.729	8626.75
440.837	8783.75
440.945	9475.75
441.054	9063.75
441.162	9029.75
441.27	9274.75
441.378	9429.75
441.487	9365.75
441.595	9901.75
441.703	9539.75
441.811	9257.75
441.92	9229.75
442.028	8907.75
442.136	9117.75
442.244	9011.75
442.352	9126.75
442.461	8921.75
442.569	8815.75
442.677	8941.75
442.785	9133.75
442.893	8959.75
443.001	8932.75
443.109	8947.75
443.217	8934.75
443.325	8939.75
443.434	9817.75
443.542	9440.75
443.65	9259.75
443.758	9463.75
443.866	9543.75
443.974	9930.75
444.082	9690.75
444.19	10282.75
444.298	10378.75
444.406	10634.75
444.514	10841.75
444.622	10838.75
444.73	10769.75
444.838	10610.75
444.946	10607.75
445.054	9977.75
445.161	10035.75
445.269	9747.75
445.377	9660.75
445.485	9603.75
445.593	9518.75
445.701	9401.75
445.809	9325.75
445.917	9296.75
446.025	9114.75
446.132	9240.75
446.24	9154.75
446.348	9216.75
446.456	9060.75
446.564	9013.75
446.671	9124.75
446.779	8923.75
446.887	8845.75
446.995	8822.75
447.102	8870.75
447.21	8785.75
447.318	8758.75
447.426	8649.75
447.533	9116.75
447.641	10074.75
447.749	8913.75
447.856	8804.75
447.964	8750.75
448.072	8903.75
448.179	8566.75
448.287	8724.75
448.395	8894.75
448.502	8608.75
448.61	8869.75
448.718	8855.75
448.825	8782.75
448.933	8745.75
449.04	8761.75
449.148	8909.75
449.256	8927.75
449.363	8899.75
449.471	9086.75
449.578	9163.75
449.686	8994.75
449.793	9449.75
449.901	9179.75
450.008	9291.75
450.116	9458.75
450.223	9424.75
450.331	9712.75
450.438	9745.75
450.546	9712.75
450.653	9862.75
450.76	10059.75
450.868	9976.75
450.975	10283.75
451.083	10144.75
451.19	10190.75
451.297	10132.75
451.405	10128.75
451.512	10131.75
451.619	10289.75
451.727	10330.75
451.834	10122.75
451.941	10235.75
452.049	10288.75
452.156	10532.75
452.263	10458.75
452.371	10503.75
452.478	10366.75
452.585	10729.75
452.692	10480.75
452.8	10528.75
452.907	10913.75
453.014	10676.75
453.121	10736.75
453.229	10806.75
453.336	10844.75
453.443	10930.75
453.55	10942.75
453.657	10760.75
453.765	11164.75
453.872	10955.75
453.979	11172.75
454.086	11203.75
454.193	11157.75
454.3	11119.75
454.407	11180.75
454.514	11466.75
454.621	11156.75
454.729	11262.75
454.836	11222.75
454.943	11505.75
455.05	11387.75
455.157	11565.75
455.264	11419.75
455.371	11495.75
455.478	11669.75
455.585	11853.75
455.692	11887.75
455.799	12059.75
455.906	11911.75
456.013	11821.75
456.12	11869.75
456.227	11878.75
456.334	12172.75
456.44	12415.75
456.547	12138.75
456.654	12224.75
456.761	12397.75
456.868	12374.75
456.975	12443.75
457.082	12445.75
457.189	12383.75
457.296	12464.75
457.402	12654.75
457.509	12491.75
457.616	12861.75
457.723	13115.75
457.83	13059.75
457.936	13152.75
458.043	13469.75
458.15	13345.75
458.257	13583.75
458.363	13845.75
458.47	14142.75
458.577	14176.75
458.684	14362.75
458.79	14551.75
458.897	14551.75
459.004	14551.75
459.11	14551.75
459.217	14551.75
459.324	14551.75
459.43	14551.75
459.537	14551.75
459.644	14551.75
459.75	14551.75
459.857	14551.75
459.964	14551.75
460.07	14551.75
460.177	14551.75
460.283	14551.75
460.39	14551.75
460.496	14551.75
460.603	14551.75
460.71	14551.75
460.816	14551.75
460.923	14551.75
461.029	14551.75
461.136	14551.75
461.242	14551.75
461.349	14551.75
461.455	14551.75
461.562	14551.75
461.668	14551.75
461.774	14551.75
461.881	14551.75
461.987	14551.75
462.094	14551.75
462.2	14551.75
462.307	14551.75
462.413	14551.75
462.519	14551.75
462.626	14551.75
462.732	14551.75
462.838	14551.75
462.945	14551.75
463.051	14551.75
463.157	14551.75
463.264	14551.75
463.37	14551.75
463.476	14551.75
463.583	14551.75
463.689	14551.75
463.795	14551.75
463.901	14551.75
464.008	14551.75
464.114	14551.75
464.22	14551.75
464.326	14551.75
464.433	14551.75
464.539	14551.75
464.645	14551.75
464.751	14551.75
464.857	14551.75
464.963	14551.75
465.07	14551.75
465.176	14551.75
465.282	14551.75
465.388	14551.75
465.494	14551.75
465.6	14403.75
465.706	14181.75
465.812	14093.75
465.918	13976.75
466.024	13888.75
466.131	13628.75
466.237	13246.75
466.343	13148.75
466.449	12976.75
466.555	12658.75
466.661	12549.75
466.767	12622.75
466.873	12364.75
466.979	12531.75
467.085	12281.75
467.191	12366.75
467.296	12161.75
467.402	12124.75
467.508	12091.75
467.614	12219.75
467.72	11615.75
467.826	11718.75
467.932	11477.75
468.038	11333.75
468.144	11391.75
468.25	11210.75
468.355	11220.75
468.461	11203.75
468.567	11079.75
468.673	11114.75
468.779	11035.75
468.885	11029.75
468.99	11149.75
469.096	11027.75
469.202	11202.75
469.308	11154.75
469.413	11311.75
469.519	11374.75
469.625	11235.75
469.731	11401.75
469.836	11407.75
469.942	11590.75
470.048	11421.75
470.153	11466.75
470.259	11454.75
470.365	11538.75
470.47	11486.75
470.576	11356.75
470.682	11336.75
470.787	11226.75
470.893	10966.75
470.999	10979.75
471.104	10643.75
471.21	10660.75
471.315	10402.75
471.421	10273.75
471.527	10556.75
471.632	10350.75
471.738	10238.75
471.843	10127.75
471.949	10052.75
472.054	9840.75
472.16	9706.75
472.265	9767.75
472.371	9598.75
472.476	9703.75
472.582	9657.75
472.687	9455.75
472.793	9359.75
472.898	9394.75
473.003	9410.75
473.109	9280.75
473.214	9293.75
473.32	9328.75
473.425	9248.75
473.53	9246.75
473.636	9249.75
473.741	9123.75
473.847	9112.75
473.952	9235.75
474.057	9003.75
474.163	9187.75
474.268	9181.75
474.373	9127.75
474.478	9080.75
474.584	9207.75
474.689	9138.75
474.794	9155.75
474.9	9441.75
475.005	9063.75
475.11	9275.75
475.215	9160.75
475.321	9221.75
475.426	9347.75
475.531	9345.75
475.636	9192.75
475.741	9161.75
475.846	9348.75
475.952	9457.75
476.057	9375.75
476.162	9444.75
476.267	9531.75
476.372	9823.75
476.477	9305.75
476.582	9688.75
476.687	9468.75
476.793	9532.75
476.898	9697.75
477.003	9724.75
477.108	9886.75
477.213	9787.75
477.318	9958.75
477.423	10109.75
477.528	10265.75
477.633	10381.75
477.738	10477.75
477.843	10516.75
477.948	10569.75
478.053	10688.75
478.158	10632.75
478.263	10770.75
478.368	10890.75
478.473	11014.75
478.578	11085.75
478.682	11240.75
478.787	11305.75
478.892	11195.75
478.997	11331.75
479.102	11321.75
479.207	11316.75
479.312	11428.75
479.417	11423.75
479.521	11433.75
479.626	11502.75
479.731	11573.75
479.836	11601.75
479.941	11969.75
480.045	12153.75
480.15	12281.75
480.255	12304.75
480.36	12286.75
480.465	12334.75
480.569	12388.75
480.674	12052.75
480.779	11896.75
480.883	11669.75
480.988	11782.75
481.093	11613.75
481.197	11570.75
481.302	11596.75
481.407	11520.75
481.511	12792.75
481.616	11576.75
481.721	11501.75
481.825	11651.75
481.93	11467.75
482.035	11495.75
482.139	11604.75
482.244	11535.75
482.348	11738.75
482.453	11650.75
482.557	11596.75
482.662	11763.75
482.767	11739.75
482.871	11779.75
482.976	11883.75
483.08	11932.75
483.185	12198.75
483.289	11928.75
483.394	12142.75
483.498	12368.75
483.603	12089.75
483.707	12384.75
483.811	12562.75
483.916	12486.75
484.02	12505.75
484.125	12757.75
484.229	12963.75
484.333	12952.75
484.438	12715.75
484.542	13024.75
484.647	13078.75
484.751	13174.75
484.855	13367.75
484.96	13304.75
485.064	13630.75
485.168	13643.75
485.273	13546.75
485.377	13701.75
485.481	13986.75
485.585	13843.75
485.69	14048.75
485.794	14108.75
485.898	14074.75
486.002	14058.75
486.107	14200.75
486.211	14021.75
486.315	14132.75
486.419	14107.75
486.524	14276.75
486.628	14378.75
486.732	14170.75
486.836	14073.75
486.94	14341.75
487.044	14319.75
487.148	14253.75
487.253	14170.75
487.357	14309.75
487.461	14450.75
487.565	14516.75
487.669	14308.75
487.773	14383.75
487.877	14411.75
487.981	14394.75
488.085	14434.75
488.189	14293.75
488.293	14497.75
488.397	14551.75
488.501	14405.75
488.605	14452.75
488.709	14395.75
488.813	14314.75
488.917	14467.75
489.021	14335.75
489.125	14551.75
489.229	14401.75
489.333	14551.75
489.437	14551.75
489.541	14551.75
489.645	14551.75
489.749	14551.75
489.853	14551.75
489.956	14542.75
490.06	14551.75
490.164	14551.75
490.268	14551.75
490.372	14551.75
490.476	14551.75
490.579	14551.75
490.683	14551.75
490.787	14551.75
490.891	14551.75
490.995	14551.75
491.098	14551.75
491.202	14551.75
491.306	14551.75
491.41	14551.75
491.513	14551.75
491.617	14551.75
491.721	14551.75
491.824	14551.75
491.928	14551.75
492.032	14551.75
492.136	14551.75
492.239	14551.75
492.343	14551.75
492.446	14551.75
492.55	14551.75
492.654	14551.75
492.757	14551.75
492.861	14551.75
492.965	14551.75
493.068	14551.75
493.172	14551.75
493.275	14551.75
493.379	14551.75
493.482	14551.75
493.586	14551.75
493.689	14551.75
493.793	14551.75
493.896	14551.75
494	14551.75
494.103	14551.75
494.207	14551.75
494.31	14551.75
494.414	14551.75
494.517	14551.75
494.621	14551.75
494.724	14551.75
494.828	14551.75
494.931	14551.75
495.034	14551.75
495.138	14551.75
495.241	14551.75
495.345	14551.75
495.448	14551.75
495.551	14551.75
495.655	14551.75
495.758	14551.75
495.861	14551.75
495.965	14551.75
496.068	14551.75
496.171	14551.75
496.274	14551.75
496.378	14551.75
496.481	14551.75
496.584	14551.75
496.687	14551.75
496.791	14551.75
496.894	14551.75
496.997	14551.75
497.1	14551.75
497.204	14551.75
497.307	14551.75
497.41	14551.75
497.513	14551.75
497.616	14551.75
497.719	14551.75
497.823	14551.75
497.926	14551.75
498.029	14551.75
498.132	14551.75
498.235	14551.75
498.338	14551.75
498.441	14551.75
498.544	14551.75
498.647	14551.75
498.75	14551.75
498.853	14551.75
498.956	14551.75
499.059	14551.75
499.163	14551.75
499.266	14551.75
499.369	14551.75
499.471	14551.75
499.574	14551.75
499.677	14551.75
499.78	14551.75
499.883	14551.75
499.986	14551.75
500.089	14551.75
500.192	14551.75
500.295	14551.75
500.398	14551.75
500.501	14551.75
500.604	14551.75
500.707	14551.75
500.809	14551.75
500.912	14551.75
501.015	14551.75
501.118	14551.75
501.221	14551.75
501.324	14551.75
501.426	14551.75
501.529	14551.75
501.632	14551.75
501.735	14551.75
501.837	14551.75
501.94	14551.75
502.043	14551.75
502.146	14551.75
502.248	14551.75
502.351	14551.75
502.454	14551.75
502.557	14551.75
502.659	14551.75
502.762	14551.75
502.865	14551.75
502.967	14551.75
503.07	14551.75
503.173	14551.75
503.275	14510.75
503.378	14411.75
503.48	14110.75
503.583	14129.75
503.686	14004.75
503.788	14268.75
503.891	13963.75
503.993	13854.75
504.096	13856.75
504.198	13919.75
504.301	13999.75
504.403	13928.75
504.506	13777.75
504.608	13540.75
504.711	13246.75
504.813	13134.75
504.916	12659.75
505.018	12331.75
505.121	11924.75
505.223	11953.75
505.326	11839.75
505.428	11662.75
505.531	11485.75
505.633	11494.75
505.735	11232.75
505.838	11116.75
505.94	10905.75
506.042	10851.75
506.145	10827.75
506.247	10856.75
506.35	10673.75
506.452	10732.75
506.554	10476.75
506.656	10553.75
506.759	10456.75
506.861	10417.75
506.963	10300.75
507.066	10425.75
507.168	10412.75
507.27	10307.75
507.372	10110.75
507.475	10107.75
507.577	10146.75
507.679	10037.75
507.781	10046.75
507.883	9873.75
507.986	9950.75
508.088	9734.75
508.19	9772.75
508.292	9835.75
508.394	9736.75
508.496	9668.75
508.598	9723.75
508.701	9703.75
508.803	9534.75
508.905	9463.75
509.007	9743.75
509.109	9573.75
509.211	9544.75
509.313	9607.75
509.415	9417.75
509.517	9430.75
509.619	9385.75
509.721	9466.75
509.823	9468.75
509.925	9520.75
510.027	9228.75
510.129	9262.75
510.231	9331.75
510.333	9222.75
510.435	9146.75
510.537	9349.75
510.639	9486.75
510.741	9241.75
510.843	9537.75
510.945	9238.75
511.047	9216.75
511.148	9329.75
511.25	9298.75
511.352	9291.75
511.454	9151.75
511.556	9422.75
511.658	9344.75
511.76	9344.75
511.861	9497.75
511.963	9317.75
512.065	9246.75
512.167	9174.75
512.268	9593.75
512.37	9500.75
512.472	9332.75
512.574	9561.75
512.676	9571.75
512.777	9279.75
512.879	9323.75
512.981	9315.75
513.082	9396.75
513.184	9521.75
513.286	9881.75
513.387	9492.75
513.489	9538.75
513.591	9707.75
513.692	9567.75
513.794	9635.75
513.896	9525.75
513.997	9665.75
514.099	9675.75
514.2	9825.75
514.302	9819.75
514.404	9923.75
514.505	9939.75
514.607	10084.75
514.708	9923.75
514.81	10168.75
514.911	10205.75
515.013	10210.75
515.114	10242.75
515.216	10234.75
515.317	10399.75
515.419	10356.75
515.52	10691.75
515.622	10589.75
515.723	10680.75
515.825	11146.75
515.926	11008.75
516.027	11139.75
516.129	11153.75
516.23	11518.75
516.332	11626.75
516.433	11806.75
516.534	11901.75
516.636	12050.75
516.737	12364.75
516.838	13647.75
516.94	12996.75
517.041	13196.75
517.142	13381.75
517.244	13741.75
517.345	13756.75
517.446	13753.75
517.547	14002.75
517.649	13960.75
517.75	14027.75
517.851	13989.75
517.952	14199.75
518.054	13667.75
518.155	13617.75
518.256	13200.75
518.357	13290.75
518.458	13021.75
518.56	12787.75
518.661	12641.75
518.762	12253.75
518.863	12253.75
518.964	12200.75
519.065	12057.75
519.166	11905.75
519.268	11694.75
519.369	11897.75
519.47	11579.75
519.571	11594.75
519.672	11386.75
519.773	11214.75
519.874	11282.75
519.975	11316.75
520.076	11183.75
520.177	11327.75
520.278	11091.75
520.379	11112.75
520.48	10926.75
520.581	10972.75
520.682	10977.75
520.783	10947.75
520.884	11121.75
520.985	10859.75
521.086	10844.75
521.187	10918.75
521.288	10739.75
521.389	10824.75
521.489	10832.75
521.59	10627.75
521.691	10775.75
521.792	10553.75
521.893	10793.75
521.994	10724.75
522.095	10733.75
522.195	10650.75
522.296	10742.75
522.397	10610.75
522.498	10629.75
522.599	10710.75
522.699	10659.75
522.8	10679.75
522.901	10702.75
523.002	10742.75
523.102	10896.75
523.203	10614.75
523.304	10681.75
523.405	10684.75
523.505	10718.75
523.606	10699.75
523.707	10486.75
523.807	10574.75
523.908	10586.75
524.009	10723.75
524.109	10605.75
524.21	10589.75
524.31	10686.75
524.411	10711.75
524.512	10729.75
524.612	10716.75
524.713	10825.75
524.813	10685.75
524.914	11008.75
525.014	14551.75
525.115	10986.75
525.216	10673.75
525.316	10689.75
525.417	10845.75
525.517	10545.75
525.618	10731.75
525.718	10607.75
525.819	10682.75
525.919	10706.75
526.019	10704.75
526.12	10755.75
526.22	10720.75
526.321	10651.75
526.421	10762.75
526.522	10654.75
526.622	10585.75
526.722	10741.75
526.823	10799.75
526.923	10740.75
527.023	10828.75
527.124	10688.75
527.224	10666.75
527.324	10629.75
527.425	10746.75
527.525	10370.75
527.625	10638.75
527.726	10671.75
527.826	10609.75
527.926	10683.75
528.026	10670.75
528.127	10497.75
528.227	10615.75
528.327	10738.75
528.427	10634.75
528.528	10667.75
528.628	10555.75
528.728	10565.75
528.828	10535.75
528.928	10561.75
529.029	10633.75
529.129	10623.75
529.229	10527.75
529.329	10586.75
529.429	10574.75
529.529	10633.75
529.629	10686.75
529.729	10516.75
529.829	10669.75
529.93	10502.75
530.03	10572.75
530.13	10414.75
530.23	10465.75
530.33	10697.75
530.43	10330.75
530.53	10478.75
530.63	10643.75
530.73	10374.75
530.83	10265.75
530.93	10269.75
531.03	10243.75
531.13	10410.75
531.23	10290.75
531.33	10302.75
531.429	10362.75
531.529	10446.75
531.629	10459.75
531.729	10114.75
531.829	10197.75
531.929	10313.75
532.029	10125.75
532.129	10089.75
532.229	10338.75
532.328	10217.75
532.428	10101.75
532.528	10095.75
532.628	10005.75
532.728	10043.75
532.827	10036.75
532.927	10125.75
533.027	9979.75
533.127	10012.75
533.227	9951.75
533.326	9861.75
533.426	9821.75
533.526	9991.75
