Data from 14g_HRC06701__8__191.txt Node

Date: Thu Apr 18 01:58:02 CDT 2024
User: Estudiantes 2
Spectrometer: HR+C0670
Trigger mode: 4
Integration Time (sec): 1.000000E0
Scans to average: 1
Electric dark correction enabled: true
Nonlinearity correction enabled: false
Boxcar width: 0
XAxis mode: Wavelengths
Number of Pixels in Spectrum: 2048
>>>>>Begin Spectral Data<<<<<
407.81	-149.62
407.921	-149.62
408.032	-149.62
408.143	-84.62
408.254	-121.62
408.365	2.38
408.476	262.38
408.587	-35.62
408.699	-18.62
408.81	-11.62
408.921	-8.62
409.032	-42.62
409.143	40.38
409.254	54.38
409.365	67.38
409.476	-29.62
409.587	12.38
409.698	63.38
409.809	78.38
409.92	2.38
410.031	2.38
410.142	13.38
410.253	13.38
410.364	61.38
410.475	290.38
410.585	1684.38
410.696	1946.38
410.807	1812.38
410.918	1784.38
411.029	1922.38
411.14	1874.38
411.251	1765.38
411.362	1957.38
411.472	1910.38
411.583	1893.38
411.694	1936.38
411.805	1922.38
411.916	1917.38
412.026	1966.38
412.137	1984.38
412.248	1916.38
412.359	1901.38
412.47	1930.38
412.58	1772.38
412.691	1855.38
412.802	1844.38
412.912	1850.38
413.023	1838.38
413.134	1842.38
413.245	1932.38
413.355	1874.38
413.466	1788.38
413.577	1883.38
413.687	1931.38
413.798	1805.38
413.909	2012.38
414.019	1920.38
414.13	1880.38
414.24	1858.38
414.351	1987.38
414.462	2066.38
414.572	1931.38
414.683	1951.38
414.793	1804.38
414.904	2180.38
415.014	1910.38
415.125	1801.38
415.235	1863.38
415.346	2012.38
415.456	1927.38
415.567	1870.38
415.677	1929.38
415.788	1938.38
415.898	1930.38
416.009	1847.38
416.119	1929.38
416.23	1860.38
416.34	1835.38
416.45	1896.38
416.561	2612.38
416.671	1982.38
416.782	1850.38
416.892	1850.38
417.002	1887.38
417.113	2031.38
417.223	1926.38
417.333	1818.38
417.444	1862.38
417.554	2000.38
417.664	1961.38
417.775	1882.38
417.885	1975.38
417.995	1983.38
418.106	2134.38
418.216	2021.38
418.326	2026.38
418.436	2081.38
418.547	2118.38
418.657	2060.38
418.767	2164.38
418.877	2055.38
418.987	2143.38
419.098	2089.38
419.208	2148.38
419.318	2230.38
419.428	2150.38
419.538	2044.38
419.648	2170.38
419.759	2070.38
419.869	2160.38
419.979	2154.38
420.089	2089.38
420.199	2112.38
420.309	2190.38
420.419	2200.38
420.529	2131.38
420.639	2686.38
420.749	2307.38
420.859	2223.38
420.969	2162.38
421.079	2475.38
421.189	2208.38
421.299	2237.38
421.409	2109.38
421.519	2340.38
421.629	2221.38
421.739	2264.38
421.849	2267.38
421.959	2207.38
422.069	2310.38
422.179	2307.38
422.289	2251.38
422.399	2359.38
422.509	2475.38
422.619	4857.38
422.729	2486.38
422.838	2427.38
422.948	2431.38
423.058	2422.38
423.168	2463.38
423.278	2422.38
423.388	2496.38
423.498	2564.38
423.607	2563.38
423.717	2794.38
423.827	2752.38
423.937	2668.38
424.046	2656.38
424.156	2689.38
424.266	2679.38
424.376	2892.38
424.485	2688.38
424.595	2615.38
424.705	2660.38
424.815	2726.38
424.924	3023.38
425.034	2801.38
425.144	2578.38
425.253	2732.38
425.363	2810.38
425.473	2828.38
425.582	2661.38
425.692	2743.38
425.801	2688.38
425.911	2855.38
426.021	2776.38
426.13	2906.38
426.24	2946.38
426.349	2906.38
426.459	2880.38
426.568	2834.38
426.678	3009.38
426.787	2963.38
426.897	2878.38
427.006	2953.38
427.116	2962.38
427.225	2936.38
427.335	2973.38
427.444	2946.38
427.554	2983.38
427.663	3025.38
427.773	2935.38
427.882	3086.38
427.992	2961.38
428.101	3030.38
428.21	3068.38
428.32	3162.38
428.429	3026.38
428.539	3323.38
428.648	3009.38
428.757	3126.38
428.867	3155.38
428.976	3342.38
429.085	3173.38
429.195	3101.38
429.304	3216.38
429.413	3198.38
429.523	3281.38
429.632	3305.38
429.741	3170.38
429.85	3188.38
429.96	3341.38
430.069	3261.38
430.178	3286.38
430.287	3568.38
430.397	3312.38
430.506	3314.38
430.615	3334.38
430.724	3458.38
430.833	3342.38
430.943	3410.38
431.052	3466.38
431.161	3356.38
431.27	3508.38
431.379	3507.38
431.488	3744.38
431.597	3517.38
431.706	3650.38
431.816	3606.38
431.925	3514.38
432.034	3497.38
432.143	3690.38
432.252	3544.38
432.361	3660.38
432.47	3567.38
432.579	3534.38
432.688	3553.38
432.797	3664.38
432.906	3447.38
433.015	3561.38
433.124	3977.38
433.233	3630.38
433.342	3599.38
433.451	3582.38
433.56	3570.38
433.669	3607.38
433.778	3593.38
433.886	3699.38
433.995	3691.38
434.104	3766.38
434.213	3762.38
434.322	3621.38
434.431	3933.38
434.54	3984.38
434.649	4006.38
434.757	3933.38
434.866	3917.38
434.975	4032.38
435.084	3913.38
435.193	3771.38
435.301	4062.38
435.41	3986.38
435.519	4056.38
435.628	3556.38
435.737	3553.38
435.845	3522.38
435.954	3399.38
436.063	3479.38
436.171	3373.38
436.28	3391.38
436.389	3492.38
436.498	3402.38
436.606	3395.38
436.715	3562.38
436.823	3315.38
436.932	3308.38
437.041	3266.38
437.149	3283.38
437.258	3207.38
437.367	3086.38
437.475	3182.38
437.584	3378.38
437.692	3167.38
437.801	4702.38
437.91	3359.38
438.018	3179.38
438.127	3153.38
438.235	3127.38
438.344	3135.38
438.452	3149.38
438.561	2946.38
438.669	2990.38
438.778	3003.38
438.886	3021.38
438.995	2896.38
439.103	3062.38
439.212	3052.38
439.32	3043.38
439.428	2988.38
439.537	3099.38
439.645	3234.38
439.754	3063.38
439.862	3065.38
439.97	3122.38
440.079	3085.38
440.187	3012.38
440.295	3180.38
440.404	3095.38
440.512	3177.38
440.62	3246.38
440.729	3169.38
440.837	3185.38
440.945	4037.38
441.054	3366.38
441.162	3256.38
441.27	3410.38
441.378	3418.38
441.487	3421.38
441.595	3776.38
441.703	3503.38
441.811	3303.38
441.92	3355.38
442.028	3249.38
442.136	3390.38
442.244	3348.38
442.352	3331.38
442.461	3224.38
442.569	3238.38
442.677	3304.38
442.785	3336.38
442.893	3245.38
443.001	3231.38
443.109	3164.38
443.217	3201.38
443.325	3265.38
443.434	3786.38
443.542	3507.38
443.65	3376.38
443.758	3531.38
443.866	3438.38
443.974	3749.38
444.082	3568.38
444.19	3638.38
444.298	3662.38
444.406	3841.38
444.514	3790.38
444.622	3885.38
444.73	3862.38
444.838	3851.38
444.946	3814.38
445.054	3587.38
445.161	3625.38
445.269	3518.38
445.377	3475.38
445.485	3481.38
445.593	3410.38
445.701	3526.38
445.809	3425.38
445.917	3434.38
446.025	3305.38
446.132	3450.38
446.24	3415.38
446.348	3386.38
446.456	3188.38
446.564	3346.38
446.671	3227.38
446.779	3223.38
446.887	3266.38
446.995	3223.38
447.102	3240.38
447.21	3338.38
447.318	3233.38
447.426	3172.38
447.533	3565.38
447.641	4405.38
447.749	3309.38
447.856	3250.38
447.964	3311.38
448.072	3399.38
448.179	3267.38
448.287	3339.38
448.395	3237.38
448.502	3230.38
448.61	3299.38
448.718	3227.38
448.825	3295.38
448.933	3418.38
449.04	3258.38
449.148	3310.38
449.256	3319.38
449.363	3401.38
449.471	3423.38
449.578	3431.38
449.686	3417.38
449.793	3506.38
449.901	3429.38
450.008	3624.38
450.116	3531.38
450.223	3460.38
450.331	3611.38
450.438	3522.38
450.546	3630.38
450.653	3703.38
450.76	3765.38
450.868	3684.38
450.975	3882.38
451.083	3805.38
451.19	3813.38
451.297	3756.38
451.405	3895.38
451.512	3752.38
451.619	3881.38
451.727	3925.38
451.834	3785.38
451.941	3815.38
452.049	3869.38
452.156	3865.38
452.263	3844.38
452.371	3924.38
452.478	3948.38
452.585	4012.38
452.692	3889.38
452.8	4007.38
452.907	4104.38
453.014	3879.38
453.121	4072.38
453.229	4071.38
453.336	4053.38
453.443	4169.38
453.55	4105.38
453.657	4005.38
453.765	4142.38
453.872	4089.38
453.979	4197.38
454.086	4144.38
454.193	4259.38
454.3	3988.38
454.407	4202.38
454.514	4310.38
454.621	4125.38
454.729	4141.38
454.836	4261.38
454.943	4325.38
455.05	4204.38
455.157	4403.38
455.264	4289.38
455.371	4332.38
455.478	4321.38
455.585	4660.38
455.692	4362.38
455.799	4520.38
455.906	4424.38
456.013	4371.38
456.12	4335.38
456.227	4450.38
456.334	4424.38
456.44	4451.38
456.547	4424.38
456.654	4430.38
456.761	4492.38
456.868	4567.38
456.975	4626.38
457.082	4496.38
457.189	4515.38
457.296	4662.38
457.402	4521.38
457.509	4525.38
457.616	4719.38
457.723	4881.38
457.83	4685.38
457.936	4719.38
458.043	5174.38
458.15	4781.38
458.257	4919.38
458.363	4918.38
458.47	5014.38
458.577	5135.38
458.684	5127.38
458.79	5200.38
458.897	5243.38
459.004	5473.38
459.11	5361.38
459.217	5329.38
459.324	5494.38
459.43	5707.38
459.537	5771.38
459.644	5645.38
459.75	5718.38
459.857	6086.38
459.964	5811.38
460.07	6083.38
460.177	6057.38
460.283	6028.38
460.39	6266.38
460.496	6113.38
460.603	6150.38
460.71	6111.38
460.816	6054.38
460.923	5993.38
461.029	5987.38
461.136	6123.38
461.242	5996.38
461.349	6020.38
461.455	6090.38
461.562	6292.38
461.668	6139.38
461.774	6156.38
461.881	6176.38
461.987	6261.38
462.094	6377.38
462.2	6503.38
462.307	6375.38
462.413	6285.38
462.519	6686.38
462.626	6970.38
462.732	6944.38
462.838	7324.38
462.945	7433.38
463.051	7493.38
463.157	7348.38
463.264	7262.38
463.37	6960.38
463.476	6839.38
463.583	6668.38
463.689	6628.38
463.795	6555.38
463.901	6719.38
464.008	6775.38
464.114	6644.38
464.22	6689.38
464.326	6547.38
464.433	6382.38
464.539	6294.38
464.645	6243.38
464.751	6282.38
464.857	6020.38
464.963	5759.38
465.07	5642.38
465.176	5422.38
465.282	5372.38
465.388	5242.38
465.494	5062.38
465.6	4988.38
465.706	4916.38
465.812	4839.38
465.918	4752.38
466.024	4731.38
466.131	4654.38
466.237	4559.38
466.343	4504.38
466.449	4427.38
466.555	4405.38
466.661	4274.38
466.767	4293.38
466.873	4272.38
466.979	4433.38
467.085	4218.38
467.191	4292.38
467.296	4259.38
467.402	4199.38
467.508	4220.38
467.614	4285.38
467.72	4100.38
467.826	3965.38
467.932	4026.38
468.038	4032.38
468.144	3997.38
468.25	3917.38
468.355	3842.38
468.461	3915.38
468.567	3862.38
468.673	3854.38
468.779	3776.38
468.885	3828.38
468.99	3794.38
469.096	3887.38
469.202	3953.38
469.308	3912.38
469.413	3954.38
469.519	3919.38
469.625	3936.38
469.731	3968.38
469.836	3862.38
469.942	4058.38
470.048	3968.38
470.153	3980.38
470.259	3968.38
470.365	4180.38
470.47	3961.38
470.576	3924.38
470.682	3957.38
470.787	3856.38
470.893	3722.38
470.999	3791.38
471.104	3803.38
471.21	3632.38
471.315	3518.38
471.421	3567.38
471.527	3791.38
471.632	3620.38
471.738	3559.38
471.843	3499.38
471.949	3463.38
472.054	3528.38
472.16	3448.38
472.265	3391.38
472.371	3445.38
472.476	3418.38
472.582	3408.38
472.687	3259.38
472.793	3277.38
472.898	3308.38
473.003	3262.38
473.109	3194.38
473.214	3214.38
473.32	3219.38
473.425	3247.38
473.53	3301.38
473.636	3173.38
473.741	3253.38
473.847	3198.38
473.952	3228.38
474.057	3228.38
474.163	3227.38
474.268	3198.38
474.373	3147.38
474.478	3124.38
474.584	3172.38
474.689	3221.38
474.794	3147.38
474.9	3513.38
475.005	3226.38
475.11	3298.38
475.215	3229.38
475.321	3228.38
475.426	3375.38
475.531	3305.38
475.636	3193.38
475.741	3130.38
475.846	3354.38
475.952	3453.38
476.057	3310.38
476.162	3314.38
476.267	3446.38
476.372	3577.38
476.477	3264.38
476.582	3409.38
476.687	3285.38
476.793	3304.38
476.898	3387.38
477.003	3420.38
477.108	3382.38
477.213	3406.38
477.318	3455.38
477.423	3469.38
477.528	3613.38
477.633	3630.38
477.738	3567.38
477.843	3534.38
477.948	3667.38
478.053	3653.38
478.158	3566.38
478.263	3663.38
478.368	3720.38
478.473	3804.38
478.578	3767.38
478.682	3816.38
478.787	3810.38
478.892	3813.38
478.997	3980.38
479.102	3871.38
479.207	3744.38
479.312	4008.38
479.417	3898.38
479.521	3857.38
479.626	4105.38
479.731	3973.38
479.836	4014.38
479.941	4115.38
480.045	4167.38
480.15	4155.38
480.255	4190.38
480.36	4158.38
480.465	4178.38
480.569	4236.38
480.674	4164.38
480.779	3976.38
480.883	4050.38
480.988	4092.38
481.093	3991.38
481.197	4004.38
481.302	4042.38
481.407	4066.38
481.511	5316.38
481.616	4026.38
481.721	4038.38
481.825	4101.38
481.93	3867.38
482.035	3979.38
482.139	3970.38
482.244	4026.38
482.348	3977.38
482.453	4006.38
482.557	4047.38
482.662	4114.38
482.767	3955.38
482.871	4007.38
482.976	4084.38
483.08	4137.38
483.185	4331.38
483.289	4095.38
483.394	4257.38
483.498	4218.38
483.603	4204.38
483.707	4330.38
483.811	4400.38
483.916	4339.38
484.02	4266.38
484.125	4443.38
484.229	4447.38
484.333	4544.38
484.438	4493.38
484.542	4439.38
484.647	4472.38
484.751	4635.38
484.855	4574.38
484.96	4549.38
485.064	4753.38
485.168	4766.38
485.273	4691.38
485.377	4756.38
485.481	4954.38
485.585	4770.38
485.69	4778.38
485.794	4830.38
485.898	4783.38
486.002	4912.38
486.107	4932.38
486.211	4785.38
486.315	4936.38
486.419	5015.38
486.524	4944.38
486.628	4865.38
486.732	4890.38
486.836	4818.38
486.94	4875.38
487.044	4907.38
487.148	4891.38
487.253	4852.38
487.357	4929.38
487.461	5133.38
487.565	4961.38
487.669	4928.38
487.773	5055.38
487.877	4985.38
487.981	5024.38
488.085	4959.38
488.189	4969.38
488.293	5058.38
488.397	5306.38
488.501	4963.38
488.605	4844.38
488.709	4962.38
488.813	5040.38
488.917	4871.38
489.021	4963.38
489.125	5259.38
489.229	4842.38
489.333	5111.38
489.437	5053.38
489.541	5026.38
489.645	4955.38
489.749	5006.38
489.853	5173.38
489.956	5045.38
490.06	5011.38
490.164	5139.38
490.268	4926.38
490.372	5002.38
490.476	5018.38
490.579	4946.38
490.683	5638.38
490.787	5140.38
490.891	4982.38
490.995	4971.38
491.098	5047.38
491.202	5195.38
491.306	5150.38
491.41	5134.38
491.513	5098.38
491.617	4930.38
491.721	5200.38
491.824	5331.38
491.928	5058.38
492.032	5367.38
492.136	5002.38
492.239	5110.38
492.343	5066.38
492.446	5447.38
492.55	5178.38
492.654	4946.38
492.757	5051.38
492.861	5179.38
492.965	5061.38
493.068	5104.38
493.172	5127.38
493.275	5083.38
493.379	4999.38
493.482	5079.38
493.586	5190.38
493.689	5286.38
493.793	5005.38
493.896	5250.38
494	5095.38
494.103	5253.38
494.207	5481.38
494.31	5470.38
494.414	5193.38
494.517	5062.38
494.621	5005.38
494.724	5031.38
494.828	5009.38
494.931	4918.38
495.034	4921.38
495.138	5180.38
495.241	4919.38
495.345	5787.38
495.448	5077.38
495.551	4933.38
495.655	5002.38
495.758	4920.38
495.861	4910.38
495.965	4901.38
496.068	5058.38
496.171	5118.38
496.274	4998.38
496.378	5026.38
496.481	5047.38
496.584	4985.38
496.687	5058.38
496.791	5126.38
496.894	5154.38
496.997	5104.38
497.1	5143.38
497.204	5219.38
497.307	5034.38
497.41	5451.38
497.513	5493.38
497.616	5259.38
497.719	5316.38
497.823	5495.38
497.926	5460.38
498.029	5580.38
498.132	5684.38
498.235	5797.38
498.338	5991.38
498.441	6060.38
498.544	6131.38
498.647	6328.38
498.75	6475.38
498.853	6841.38
498.956	6794.38
499.059	7182.38
499.163	7355.38
499.266	7509.38
499.369	7680.38
499.471	8087.38
499.574	8487.38
499.677	8620.38
499.78	9104.38
499.883	9626.38
499.986	9957.38
500.089	10181.38
500.192	10637.38
500.295	10705.38
500.398	10538.38
500.501	10410.38
500.604	10163.38
500.707	9691.38
500.809	9368.38
500.912	9111.38
501.015	8739.38
501.118	8233.38
501.221	7881.38
501.324	7490.38
501.426	7130.38
501.529	6888.38
501.632	6614.38
501.735	6383.38
501.837	6236.38
501.94	6108.38
502.043	5902.38
502.146	5799.38
502.248	5699.38
502.351	5409.38
502.454	5338.38
502.557	5280.38
502.659	5169.38
502.762	4997.38
502.865	4977.38
502.967	4801.38
503.07	4802.38
503.173	4879.38
503.275	4656.38
503.378	4549.38
503.48	4523.38
503.583	4696.38
503.686	4525.38
503.788	4716.38
503.891	4561.38
503.993	4740.38
504.096	4485.38
504.198	4584.38
504.301	4500.38
504.403	4535.38
504.506	4450.38
504.608	4333.38
504.711	4337.38
504.813	4272.38
504.916	4129.38
505.018	4082.38
505.121	3932.38
505.223	4064.38
505.326	3836.38
505.428	3915.38
505.531	3908.38
505.633	3803.38
505.735	3688.38
505.838	3654.38
505.94	3696.38
506.042	3574.38
506.145	3539.38
506.247	3670.38
506.35	3484.38
506.452	3651.38
506.554	3625.38
506.656	3542.38
506.759	3478.38
506.861	3517.38
506.963	3506.38
507.066	3435.38
507.168	3596.38
507.27	3462.38
507.372	3359.38
507.475	3382.38
507.577	3469.38
507.679	3371.38
507.781	3258.38
507.883	3357.38
507.986	3334.38
508.088	3341.38
508.19	3381.38
508.292	3359.38
508.394	3330.38
508.496	3252.38
508.598	3243.38
508.701	3253.38
508.803	3227.38
508.905	3215.38
509.007	3258.38
509.109	3332.38
509.211	3327.38
509.313	3237.38
509.415	3190.38
509.517	3269.38
509.619	3190.38
509.721	3163.38
509.823	3167.38
509.925	3332.38
510.027	3200.38
510.129	3115.38
510.231	3216.38
510.333	3105.38
510.435	3118.38
510.537	3272.38
510.639	3189.38
510.741	3111.38
510.843	3289.38
510.945	3172.38
511.047	3277.38
511.148	3171.38
511.25	3090.38
511.352	3184.38
511.454	3015.38
511.556	3244.38
511.658	3138.38
511.76	3206.38
511.861	3384.38
511.963	3174.38
512.065	3121.38
512.167	3186.38
512.268	3331.38
512.37	3211.38
512.472	3207.38
512.574	3239.38
512.676	3201.38
512.777	3183.38
512.879	3245.38
512.981	3168.38
513.082	3238.38
513.184	3235.38
513.286	3634.38
513.387	3265.38
513.489	3438.38
513.591	3331.38
513.692	3368.38
513.794	3468.38
513.896	3234.38
513.997	3254.38
514.099	3177.38
514.2	3397.38
514.302	3258.38
514.404	3342.38
514.505	3361.38
514.607	3332.38
514.708	3349.38
514.81	3475.38
514.911	3441.38
515.013	3516.38
515.114	3525.38
515.216	3438.38
515.317	3500.38
515.419	3520.38
515.52	3555.38
515.622	3523.38
515.723	3566.38
515.825	3767.38
515.926	3621.38
516.027	3669.38
516.129	3757.38
516.23	3817.38
516.332	3845.38
516.433	3889.38
516.534	3920.38
516.636	3873.38
516.737	3991.38
516.838	5120.38
516.94	4354.38
517.041	4299.38
517.142	4443.38
517.244	4480.38
517.345	4477.38
517.446	4510.38
517.547	4640.38
517.649	4475.38
517.75	4616.38
517.851	4539.38
517.952	4746.38
518.054	4603.38
518.155	4597.38
518.256	4306.38
518.357	4450.38
518.458	4218.38
518.56	4208.38
518.661	4118.38
518.762	4082.38
518.863	4234.38
518.964	4084.38
519.065	4014.38
519.166	3866.38
519.268	3840.38
519.369	4208.38
519.47	3967.38
519.571	3887.38
519.672	3821.38
519.773	3854.38
519.874	3807.38
519.975	3875.38
520.076	3832.38
520.177	3780.38
520.278	3746.38
520.379	3794.38
520.48	3575.38
520.581	3630.38
520.682	3686.38
520.783	3738.38
520.884	3751.38
520.985	3779.38
521.086	3774.38
521.187	3705.38
521.288	3647.38
521.389	3833.38
521.489	3553.38
521.59	3603.38
521.691	3691.38
521.792	3571.38
521.893	3716.38
521.994	3827.38
522.095	3655.38
522.195	3709.38
522.296	3855.38
522.397	3764.38
522.498	3625.38
522.599	3594.38
522.699	3716.38
522.8	3628.38
522.901	3725.38
523.002	3703.38
523.102	3872.38
523.203	3711.38
523.304	3888.38
523.405	3662.38
523.505	3621.38
523.606	3732.38
523.707	3697.38
523.807	3674.38
523.908	3641.38
524.009	3870.38
524.109	3726.38
524.21	3682.38
524.31	3747.38
524.411	3871.38
524.512	3844.38
524.612	3740.38
524.713	3829.38
524.813	3722.38
524.914	3984.38
525.014	9272.38
525.115	4113.38
525.216	3672.38
525.316	3713.38
525.417	3655.38
525.517	3671.38
525.618	3747.38
525.718	3616.38
525.819	3687.38
525.919	3756.38
526.019	3668.38
526.12	3691.38
526.22	3654.38
526.321	3731.38
526.421	3677.38
526.522	3576.38
526.622	3648.38
526.722	3621.38
526.823	3715.38
526.923	3740.38
527.023	3755.38
527.124	3651.38
527.224	3818.38
527.324	3584.38
527.425	3667.38
527.525	3647.38
527.625	3714.38
527.726	3562.38
527.826	3668.38
527.926	3738.38
528.026	3676.38
528.127	3643.38
528.227	3744.38
528.327	3730.38
528.427	3677.38
528.528	3700.38
528.628	3687.38
528.728	3589.38
528.828	3683.38
528.928	3720.38
529.029	3644.38
529.129	3707.38
529.229	3749.38
529.329	3620.38
529.429	3688.38
529.529	3850.38
529.629	3677.38
529.729	3613.38
529.829	3783.38
529.93	3626.38
530.03	3655.38
530.13	3629.38
530.23	3637.38
530.33	3676.38
530.43	3599.38
530.53	3668.38
530.63	3621.38
530.73	3520.38
530.83	3538.38
530.93	3441.38
531.03	3493.38
531.13	3676.38
531.23	3522.38
531.33	3529.38
531.429	3623.38
531.529	3585.38
531.629	3548.38
531.729	3459.38
531.829	3483.38
531.929	3391.38
532.029	3543.38
532.129	3544.38
532.229	3491.38
532.328	3502.38
532.428	3482.38
532.528	3438.38
532.628	3426.38
532.728	3463.38
532.827	3359.38
532.927	3434.38
533.027	3396.38
533.127	3624.38
533.227	3468.38
533.326	3458.38
533.426	3363.38
533.526	3448.38
533.625	3424.38
533.725	3702.38
533.825	3358.38
533.924	3153.38
534.024	3251.38
534.124	3312.38
534.223	3267.38
534.323	3647.38
534.423	3404.38
534.522	3302.38
534.622	3155.38
534.722	3228.38
534.821	3257.38
534.921	3128.38
535.02	3144.38
535.12	3203.38
535.219	3337.38
535.319	3243.38
535.419	3230.38
535.518	3069.38
535.618	3104.38
535.717	3210.38
535.817	3045.38
535.916	2991.38
536.016	3139.38
536.115	3035.38
536.215	2988.38
536.314	2981.38
536.413	2875.38
536.513	2989.38
536.612	3009.38
536.712	2925.38
536.811	2861.38
536.91	2915.38
537.01	2966.38
537.109	2917.38
537.209	2924.38
537.308	2982.38
537.407	2830.38
537.507	2906.38
537.606	2863.38
537.705	2949.38
537.805	2813.38
537.904	2764.38
