Data from 14g_HRC06701__30__213.txt Node

Date: Thu Apr 18 01:58:24 CDT 2024
User: Estudiantes 2
Spectrometer: HR+C0670
Trigger mode: 4
Integration Time (sec): 1.000000E0
Scans to average: 1
Electric dark correction enabled: true
Nonlinearity correction enabled: false
Boxcar width: 0
XAxis mode: Wavelengths
Number of Pixels in Spectrum: 2048
>>>>>Begin Spectral Data<<<<<
407.81	-125.81
407.921	-125.81
408.032	-125.81
408.143	-142.81
408.254	-105.81
408.365	56.19
408.476	257.19
408.587	-50.81
408.699	32.19
408.81	-42.81
408.921	-50.81
409.032	-21.81
409.143	17.19
409.254	31.19
409.365	83.19
409.476	-23.81
409.587	26.19
409.698	61.19
409.809	108.19
409.92	-24.81
410.031	-23.81
410.142	101.19
410.253	24.19
410.364	2.19
410.475	221.19
410.585	1006.19
410.696	1158.19
410.807	1146.19
410.918	1127.19
411.029	1168.19
411.14	1145.19
411.251	1129.19
411.362	1215.19
411.472	1218.19
411.583	1209.19
411.694	1199.19
411.805	1150.19
411.916	1228.19
412.026	1185.19
412.137	1164.19
412.248	1184.19
412.359	1170.19
412.47	1053.19
412.58	1065.19
412.691	1162.19
412.802	1166.19
412.912	1130.19
413.023	1176.19
413.134	1054.19
413.245	1152.19
413.355	1196.19
413.466	1103.19
413.577	1048.19
413.687	1247.19
413.798	1098.19
413.909	1153.19
414.019	1121.19
414.13	1229.19
414.24	1112.19
414.351	1148.19
414.462	1342.19
414.572	1207.19
414.683	1186.19
414.793	1218.19
414.904	1454.19
415.014	1106.19
415.125	1138.19
415.235	1190.19
415.346	1222.19
415.456	1324.19
415.567	1192.19
415.677	1186.19
415.788	1261.19
415.898	1126.19
416.009	1142.19
416.119	1197.19
416.23	1192.19
416.34	1088.19
416.45	1164.19
416.561	1924.19
416.671	1232.19
416.782	1078.19
416.892	1161.19
417.002	1236.19
417.113	1200.19
417.223	1229.19
417.333	1209.19
417.444	1119.19
417.554	1173.19
417.664	1305.19
417.775	1108.19
417.885	1179.19
417.995	1191.19
418.106	1369.19
418.216	1190.19
418.326	1249.19
418.436	1273.19
418.547	1245.19
418.657	1257.19
418.767	1417.19
418.877	1226.19
418.987	1248.19
419.098	1316.19
419.208	1271.19
419.318	1346.19
419.428	1337.19
419.538	1217.19
419.648	1305.19
419.759	1373.19
419.869	1342.19
419.979	1233.19
420.089	1320.19
420.199	1298.19
420.309	1333.19
420.419	1367.19
420.529	1324.19
420.639	1786.19
420.749	1382.19
420.859	1408.19
420.969	1370.19
421.079	1590.19
421.189	1446.19
421.299	1396.19
421.409	1313.19
421.519	1430.19
421.629	1541.19
421.739	1360.19
421.849	1341.19
421.959	1328.19
422.069	1414.19
422.179	1367.19
422.289	1370.19
422.399	1431.19
422.509	1537.19
422.619	3917.19
422.729	1693.19
422.838	1335.19
422.948	1489.19
423.058	1464.19
423.168	1488.19
423.278	1456.19
423.388	1590.19
423.498	1521.19
423.607	1578.19
423.717	1794.19
423.827	1767.19
423.937	1522.19
424.046	1687.19
424.156	1724.19
424.266	1542.19
424.376	1761.19
424.485	1827.19
424.595	1602.19
424.705	1583.19
424.815	1664.19
424.924	2004.19
425.034	1694.19
425.144	1634.19
425.253	1646.19
425.363	1650.19
425.473	1793.19
425.582	1651.19
425.692	1668.19
425.801	1606.19
425.911	1875.19
426.021	1657.19
426.13	1813.19
426.24	1976.19
426.349	1812.19
426.459	1757.19
426.568	1690.19
426.678	1829.19
426.787	1731.19
426.897	1707.19
427.006	1805.19
427.116	1831.19
427.225	1824.19
427.335	1962.19
427.444	1810.19
427.554	1825.19
427.663	1885.19
427.773	1753.19
427.882	1897.19
427.992	1947.19
428.101	1823.19
428.21	1841.19
428.32	1920.19
428.429	1832.19
428.539	2158.19
428.648	1932.19
428.757	1983.19
428.867	1939.19
428.976	2039.19
429.085	2001.19
429.195	1933.19
429.304	1946.19
429.413	2045.19
429.523	2084.19
429.632	2039.19
429.741	1993.19
429.85	1997.19
429.96	2039.19
430.069	2029.19
430.178	2052.19
430.287	2290.19
430.397	2100.19
430.506	2108.19
430.615	1971.19
430.724	2102.19
430.833	2129.19
430.943	2103.19
431.052	2063.19
431.161	2032.19
431.27	2136.19
431.379	2106.19
431.488	2257.19
431.597	2283.19
431.706	2224.19
431.816	2162.19
431.925	2197.19
432.034	2160.19
432.143	2208.19
432.252	2222.19
432.361	2305.19
432.47	2216.19
432.579	2179.19
432.688	2122.19
432.797	2289.19
432.906	2211.19
433.015	2273.19
433.124	2548.19
433.233	2242.19
433.342	2252.19
433.451	2220.19
433.56	2205.19
433.669	2272.19
433.778	2193.19
433.886	2225.19
433.995	2325.19
434.104	2441.19
434.213	2297.19
434.322	2261.19
434.431	2461.19
434.54	2427.19
434.649	2579.19
434.757	2437.19
434.866	2368.19
434.975	2440.19
435.084	2469.19
435.193	2338.19
435.301	2554.19
435.41	2634.19
435.519	2701.19
435.628	2156.19
435.737	2150.19
435.845	2130.19
435.954	2053.19
436.063	2163.19
436.171	2160.19
436.28	2132.19
436.389	2280.19
436.498	2179.19
436.606	2132.19
436.715	2290.19
436.823	2116.19
436.932	2056.19
437.041	2024.19
437.149	2079.19
437.258	2014.19
437.367	1971.19
437.475	1984.19
437.584	2282.19
437.692	2014.19
437.801	3470.19
437.91	2114.19
438.018	1996.19
438.127	1902.19
438.235	2016.19
438.344	1954.19
438.452	1942.19
438.561	1839.19
438.669	1974.19
438.778	1846.19
438.886	1944.19
438.995	1933.19
439.103	1886.19
439.212	1895.19
439.32	1932.19
439.428	1816.19
439.537	1868.19
439.645	2035.19
439.754	2036.19
439.862	1838.19
439.97	1949.19
440.079	2039.19
440.187	1883.19
440.295	2051.19
440.404	1958.19
440.512	1938.19
440.62	1967.19
440.729	2067.19
440.837	2000.19
440.945	2644.19
441.054	2113.19
441.162	2010.19
441.27	2181.19
441.378	2124.19
441.487	2011.19
441.595	2418.19
441.703	2221.19
441.811	2159.19
441.92	2037.19
442.028	2032.19
442.136	2133.19
442.244	2077.19
442.352	2080.19
442.461	1952.19
442.569	1955.19
442.677	1916.19
442.785	2081.19
442.893	2028.19
443.001	1966.19
443.109	1925.19
443.217	2080.19
443.325	1961.19
443.434	2578.19
443.542	2338.19
443.65	2030.19
443.758	2156.19
443.866	2085.19
443.974	2445.19
444.082	2163.19
444.19	2201.19
444.298	2208.19
444.406	2249.19
444.514	2294.19
444.622	2390.19
444.73	2324.19
444.838	2276.19
444.946	2412.19
445.054	2193.19
445.161	2170.19
445.269	2146.19
445.377	2137.19
445.485	2120.19
445.593	2177.19
445.701	2327.19
445.809	2160.19
445.917	2067.19
446.025	2128.19
446.132	2177.19
446.24	2111.19
446.348	2156.19
446.456	2043.19
446.564	1980.19
446.671	2139.19
446.779	2062.19
446.887	1935.19
446.995	2072.19
447.102	2061.19
447.21	2134.19
447.318	2041.19
447.426	2048.19
447.533	2261.19
447.641	3210.19
447.749	2148.19
447.856	1992.19
447.964	2073.19
448.072	2253.19
448.179	2014.19
448.287	2060.19
448.395	2079.19
448.502	2053.19
448.61	2057.19
448.718	2018.19
448.825	2166.19
448.933	2094.19
449.04	2073.19
449.148	2166.19
449.256	2038.19
449.363	2126.19
449.471	2194.19
449.578	2247.19
449.686	2058.19
449.793	2272.19
449.901	2246.19
450.008	2238.19
450.116	2304.19
450.223	2226.19
450.331	2304.19
450.438	2264.19
450.546	2335.19
450.653	2282.19
450.76	2306.19
450.868	2432.19
450.975	2557.19
451.083	2314.19
451.19	2458.19
451.297	2374.19
451.405	2389.19
451.512	2407.19
451.619	2569.19
451.727	2491.19
451.834	2404.19
451.941	2482.19
452.049	2419.19
452.156	2449.19
452.263	2553.19
452.371	2482.19
452.478	2442.19
452.585	2609.19
452.692	2453.19
452.8	2563.19
452.907	2645.19
453.014	2541.19
453.121	2552.19
453.229	2533.19
453.336	2619.19
453.443	2598.19
453.55	2490.19
453.657	2559.19
453.765	2653.19
453.872	2593.19
453.979	2633.19
454.086	2608.19
454.193	2704.19
454.3	2642.19
454.407	2760.19
454.514	2754.19
454.621	2622.19
454.729	2673.19
454.836	2654.19
454.943	2637.19
455.05	2769.19
455.157	2761.19
455.264	2647.19
455.371	2757.19
455.478	2727.19
455.585	2980.19
455.692	2760.19
455.799	2982.19
455.906	2698.19
456.013	2744.19
456.12	2827.19
456.227	2753.19
456.334	2870.19
456.44	2889.19
456.547	2864.19
456.654	2804.19
456.761	2875.19
456.868	2997.19
456.975	2984.19
457.082	2872.19
457.189	2883.19
457.296	2918.19
457.402	2871.19
457.509	2889.19
457.616	2983.19
457.723	3151.19
457.83	3080.19
457.936	2914.19
458.043	3350.19
458.15	3080.19
458.257	3151.19
458.363	3156.19
458.47	3149.19
458.577	3269.19
458.684	3122.19
458.79	3323.19
458.897	3374.19
459.004	3417.19
459.11	3425.19
459.217	3475.19
459.324	3519.19
459.43	3541.19
459.537	3789.19
459.644	3543.19
459.75	3528.19
459.857	3949.19
459.964	3697.19
460.07	3632.19
460.177	3734.19
460.283	3780.19
460.39	3917.19
460.496	3773.19
460.603	3809.19
460.71	3765.19
460.816	3725.19
460.923	3688.19
461.029	3703.19
461.136	3781.19
461.242	3727.19
461.349	3801.19
461.455	3806.19
461.562	3998.19
461.668	3844.19
461.774	3699.19
461.881	3816.19
461.987	3921.19
462.094	3954.19
462.2	3945.19
462.307	3960.19
462.413	3940.19
462.519	4068.19
462.626	4356.19
462.732	4254.19
462.838	4295.19
462.945	4525.19
463.051	4521.19
463.157	4391.19
463.264	4362.19
463.37	4358.19
463.476	4125.19
463.583	4080.19
463.689	4039.19
463.795	4179.19
463.901	4045.19
464.008	4167.19
464.114	4072.19
464.22	4032.19
464.326	4051.19
464.433	4035.19
464.539	3918.19
464.645	3752.19
464.751	3955.19
464.857	3694.19
464.963	3420.19
465.07	3686.19
465.176	3491.19
465.282	3386.19
465.388	3385.19
465.494	3184.19
465.6	3165.19
465.706	3151.19
465.812	3077.19
465.918	3082.19
466.024	3016.19
466.131	3065.19
466.237	2904.19
466.343	2764.19
466.449	2869.19
466.555	2802.19
466.661	2786.19
466.767	2813.19
466.873	2833.19
466.979	2905.19
467.085	2739.19
467.191	2820.19
467.296	2683.19
467.402	2658.19
467.508	2721.19
467.614	2759.19
467.72	2629.19
467.826	2565.19
467.932	2589.19
468.038	2534.19
468.144	2534.19
468.25	2586.19
468.355	2536.19
468.461	2541.19
468.567	2455.19
468.673	2488.19
468.779	2488.19
468.885	2511.19
468.99	2349.19
469.096	2434.19
469.202	2580.19
469.308	2525.19
469.413	2525.19
469.519	2544.19
469.625	2501.19
469.731	2494.19
469.836	2471.19
469.942	2647.19
470.048	2504.19
470.153	2582.19
470.259	2595.19
470.365	2592.19
470.47	2587.19
470.576	2534.19
470.682	2480.19
470.787	2474.19
470.893	2325.19
470.999	2482.19
471.104	2414.19
471.21	2299.19
471.315	2216.19
471.421	2253.19
471.527	2462.19
471.632	2403.19
471.738	2220.19
471.843	2223.19
471.949	2342.19
472.054	2278.19
472.16	2180.19
472.265	2181.19
472.371	2184.19
472.476	2117.19
472.582	2224.19
472.687	2180.19
472.793	2093.19
472.898	2161.19
473.003	2236.19
473.109	2121.19
473.214	2063.19
473.32	2144.19
473.425	2136.19
473.53	2171.19
473.636	2029.19
473.741	2139.19
473.847	2024.19
473.952	2087.19
474.057	2203.19
474.163	2163.19
474.268	2065.19
474.373	2276.19
474.478	2071.19
474.584	2036.19
474.689	2159.19
474.794	2085.19
474.9	2344.19
475.005	2088.19
475.11	2220.19
475.215	2092.19
475.321	2093.19
475.426	2287.19
475.531	2175.19
475.636	2086.19
475.741	2092.19
475.846	2203.19
475.952	2338.19
476.057	2219.19
476.162	2231.19
476.267	2317.19
476.372	2410.19
476.477	2181.19
476.582	2234.19
476.687	2093.19
476.793	2179.19
476.898	2119.19
477.003	2175.19
477.108	2223.19
477.213	2186.19
477.318	2200.19
477.423	2361.19
477.528	2314.19
477.633	2309.19
477.738	2349.19
477.843	2313.19
477.948	2352.19
478.053	2344.19
478.158	2386.19
478.263	2419.19
478.368	2362.19
478.473	2512.19
478.578	2392.19
478.682	2357.19
478.787	2515.19
478.892	2464.19
478.997	2584.19
479.102	2469.19
479.207	2410.19
479.312	2515.19
479.417	2479.19
479.521	2510.19
479.626	2553.19
479.731	2481.19
479.836	2580.19
479.941	2695.19
480.045	2664.19
480.15	2673.19
480.255	2621.19
480.36	2598.19
480.465	2634.19
480.569	2838.19
480.674	2541.19
480.779	2530.19
480.883	2560.19
480.988	2624.19
481.093	2586.19
481.197	2646.19
481.302	2593.19
481.407	2656.19
481.511	3869.19
481.616	2730.19
481.721	2580.19
481.825	2741.19
481.93	2577.19
482.035	2585.19
482.139	2660.19
482.244	2675.19
482.348	2618.19
482.453	2557.19
482.557	2768.19
482.662	2693.19
482.767	2627.19
482.871	2735.19
482.976	2651.19
483.08	2737.19
483.185	2816.19
483.289	2735.19
483.394	2740.19
483.498	2750.19
483.603	2771.19
483.707	2836.19
483.811	2868.19
483.916	2974.19
484.02	2845.19
484.125	2911.19
484.229	2921.19
484.333	2989.19
484.438	2887.19
484.542	2890.19
484.647	2923.19
484.751	2935.19
484.855	2991.19
484.96	3017.19
485.064	3036.19
485.168	3068.19
485.273	3076.19
485.377	3086.19
485.481	3320.19
485.585	3075.19
485.69	3140.19
485.794	3138.19
485.898	3235.19
486.002	3113.19
486.107	3159.19
486.211	3139.19
486.315	3220.19
486.419	3271.19
486.524	3139.19
486.628	3151.19
486.732	3198.19
486.836	3194.19
486.94	3307.19
487.044	3238.19
487.148	3206.19
487.253	3242.19
487.357	3354.19
487.461	3369.19
487.565	3184.19
487.669	3279.19
487.773	3161.19
487.877	3311.19
487.981	3299.19
488.085	3289.19
488.189	3184.19
488.293	3418.19
488.397	3696.19
488.501	3311.19
488.605	3233.19
488.709	3310.19
488.813	3262.19
488.917	3207.19
489.021	3301.19
489.125	3373.19
489.229	3188.19
489.333	3416.19
489.437	3338.19
489.541	3400.19
489.645	3270.19
489.749	3331.19
489.853	3367.19
489.956	3302.19
490.06	3332.19
490.164	3283.19
490.268	3259.19
490.372	3393.19
490.476	3347.19
490.579	3263.19
490.683	3998.19
490.787	3339.19
490.891	3286.19
490.995	3414.19
491.098	3271.19
491.202	3336.19
491.306	3407.19
491.41	3433.19
491.513	3314.19
491.617	3269.19
491.721	3538.19
491.824	3490.19
491.928	3365.19
492.032	3636.19
492.136	3320.19
492.239	3296.19
492.343	3404.19
492.446	3763.19
492.55	3376.19
492.654	3294.19
492.757	3297.19
492.861	3376.19
492.965	3363.19
493.068	3512.19
493.172	3354.19
493.275	3304.19
493.379	3342.19
493.482	3380.19
493.586	3450.19
493.689	3620.19
493.793	3293.19
493.896	3462.19
494	3459.19
494.103	3420.19
494.207	3595.19
494.31	3679.19
494.414	3538.19
494.517	3338.19
494.621	3234.19
494.724	3415.19
494.828	3272.19
494.931	3242.19
495.034	3366.19
495.138	3458.19
495.241	3247.19
495.345	4084.19
495.448	3507.19
495.551	3222.19
495.655	3303.19
495.758	3297.19
495.861	3233.19
495.965	3268.19
496.068	3317.19
496.171	3375.19
496.274	3236.19
496.378	3340.19
496.481	3267.19
496.584	3382.19
496.687	3391.19
496.791	3393.19
496.894	3360.19
496.997	3300.19
497.1	3414.19
497.204	3421.19
497.307	3337.19
497.41	3661.19
497.513	3657.19
497.616	3417.19
497.719	3449.19
497.823	3475.19
497.926	3523.19
498.029	3659.19
498.132	3622.19
498.235	3678.19
498.338	3821.19
498.441	3990.19
498.544	3903.19
498.647	3977.19
498.75	4200.19
498.853	4327.19
498.956	4322.19
499.059	4625.19
499.163	4547.19
499.266	4609.19
499.369	4802.19
499.471	4920.19
499.574	5148.19
499.677	5216.19
499.78	5510.19
499.883	5672.19
499.986	6020.19
500.089	6261.19
500.192	6308.19
500.295	6354.19
500.398	6277.19
500.501	6189.19
500.604	6066.19
500.707	5805.19
500.809	5659.19
500.912	5543.19
501.015	5346.19
501.118	5092.19
501.221	4808.19
501.324	4666.19
501.426	4637.19
501.529	4269.19
501.632	4136.19
501.735	4027.19
501.837	3881.19
501.94	3784.19
502.043	3775.19
502.146	3705.19
502.248	3605.19
502.351	3514.19
502.454	3499.19
502.557	3437.19
502.659	3359.19
502.762	3402.19
502.865	3219.19
502.967	3125.19
503.07	3217.19
503.173	3189.19
503.275	3034.19
503.378	3064.19
503.48	2964.19
503.583	3021.19
503.686	3023.19
503.788	3193.19
503.891	3024.19
503.993	3153.19
504.096	2951.19
504.198	3023.19
504.301	2981.19
504.403	3003.19
504.506	2913.19
504.608	2867.19
504.711	2886.19
504.813	2883.19
504.916	2744.19
505.018	2610.19
505.121	2622.19
505.223	2600.19
505.326	2609.19
505.428	2719.19
505.531	2542.19
505.633	2552.19
505.735	2591.19
505.838	2514.19
505.94	2473.19
506.042	2451.19
506.145	2389.19
506.247	2535.19
506.35	2448.19
506.452	2472.19
506.554	2415.19
506.656	2371.19
506.759	2427.19
506.861	2330.19
506.963	2303.19
507.066	2482.19
507.168	2427.19
507.27	2337.19
507.372	2330.19
507.475	2281.19
507.577	2340.19
507.679	2324.19
507.781	2262.19
507.883	2298.19
507.986	2259.19
508.088	2301.19
508.19	2202.19
508.292	2263.19
508.394	2241.19
508.496	2197.19
508.598	2175.19
508.701	2225.19
508.803	2173.19
508.905	2153.19
509.007	2239.19
509.109	2278.19
509.211	2186.19
509.313	2232.19
509.415	2191.19
509.517	2154.19
509.619	2055.19
509.721	2291.19
509.823	2110.19
509.925	2285.19
510.027	2223.19
510.129	2200.19
510.231	2196.19
510.333	2150.19
510.435	2112.19
510.537	2179.19
510.639	2229.19
510.741	2180.19
510.843	2210.19
510.945	2100.19
511.047	2243.19
511.148	2172.19
511.25	2106.19
511.352	2245.19
511.454	2073.19
511.556	2217.19
511.658	2177.19
511.76	2252.19
511.861	2312.19
511.963	2151.19
512.065	2201.19
512.167	2097.19
512.268	2309.19
512.37	2277.19
512.472	2138.19
512.574	2225.19
512.676	2290.19
512.777	2172.19
512.879	2099.19
512.981	2170.19
513.082	2166.19
513.184	2113.19
513.286	2581.19
513.387	2305.19
513.489	2331.19
513.591	2205.19
513.692	2337.19
513.794	2223.19
513.896	2154.19
513.997	2236.19
514.099	2201.19
514.2	2251.19
514.302	2316.19
514.404	2208.19
514.505	2205.19
514.607	2309.19
514.708	2276.19
514.81	2258.19
514.911	2342.19
515.013	2399.19
515.114	2302.19
515.216	2319.19
515.317	2360.19
515.419	2262.19
515.52	2440.19
515.622	2425.19
515.723	2378.19
515.825	2526.19
515.926	2453.19
516.027	2395.19
516.129	2472.19
516.23	2448.19
516.332	2537.19
516.433	2544.19
516.534	2600.19
516.636	2619.19
516.737	2584.19
516.838	3710.19
516.94	2864.19
517.041	2738.19
517.142	2982.19
517.244	3057.19
517.345	2934.19
517.446	2943.19
517.547	3056.19
517.649	3014.19
517.75	2931.19
517.851	2957.19
517.952	3220.19
518.054	3016.19
518.155	3051.19
518.256	2886.19
518.357	2995.19
518.458	2684.19
518.56	2733.19
518.661	2836.19
518.762	2744.19
518.863	2762.19
518.964	2898.19
519.065	2654.19
519.166	2655.19
519.268	2675.19
519.369	2841.19
519.47	2664.19
519.571	2709.19
519.672	2506.19
519.773	2531.19
519.874	2653.19
519.975	2702.19
520.076	2582.19
520.177	2631.19
520.278	2623.19
520.379	2543.19
520.48	2541.19
520.581	2545.19
520.682	2455.19
520.783	2514.19
520.884	2669.19
520.985	2549.19
521.086	2502.19
521.187	2580.19
521.288	2531.19
521.389	2573.19
521.489	2514.19
521.59	2542.19
521.691	2464.19
521.792	2497.19
521.893	2702.19
521.994	2654.19
522.095	2567.19
522.195	2685.19
522.296	2727.19
522.397	2593.19
522.498	2548.19
522.599	2509.19
522.699	2506.19
522.8	2505.19
522.901	2624.19
523.002	2561.19
523.102	2718.19
523.203	2599.19
523.304	2810.19
523.405	2549.19
523.505	2609.19
523.606	2648.19
523.707	2604.19
523.807	2602.19
523.908	2603.19
524.009	2725.19
524.109	2597.19
524.21	2599.19
524.31	2637.19
524.411	2740.19
524.512	2775.19
524.612	2682.19
524.713	2728.19
524.813	2694.19
524.914	2888.19
525.014	8061.19
525.115	3022.19
525.216	2577.19
525.316	2633.19
525.417	2626.19
525.517	2585.19
525.618	2565.19
525.718	2561.19
525.819	2626.19
525.919	2674.19
526.019	2561.19
526.12	2675.19
526.22	2617.19
526.321	2477.19
526.421	2511.19
526.522	2500.19
526.622	2414.19
526.722	2486.19
526.823	2613.19
526.923	2542.19
527.023	2654.19
527.124	2597.19
527.224	2598.19
527.324	2409.19
527.425	2549.19
527.525	2448.19
527.625	2467.19
527.726	2486.19
527.826	2628.19
527.926	2513.19
528.026	2572.19
528.127	2598.19
528.227	2506.19
528.327	2699.19
528.427	2698.19
528.528	2619.19
528.628	2682.19
528.728	2654.19
528.828	2652.19
528.928	2699.19
529.029	2589.19
529.129	2629.19
529.229	2643.19
529.329	2671.19
529.429	2645.19
529.529	2662.19
529.629	2624.19
529.729	2579.19
529.829	2645.19
529.93	2521.19
530.03	2618.19
530.13	2487.19
530.23	2475.19
530.33	2609.19
530.43	2515.19
530.53	2511.19
530.63	2424.19
530.73	2374.19
530.83	2305.19
530.93	2394.19
531.03	2435.19
531.13	2488.19
531.23	2377.19
531.33	2484.19
531.429	2523.19
531.529	2398.19
531.629	2438.19
531.729	2394.19
531.829	2296.19
531.929	2401.19
532.029	2484.19
532.129	2359.19
532.229	2473.19
532.328	2376.19
532.428	2404.19
532.528	2330.19
532.628	2336.19
532.728	2414.19
532.827	2316.19
532.927	2431.19
533.027	2402.19
533.127	2500.19
533.227	2438.19
533.326	2435.19
533.426	2337.19
533.526	2489.19
533.625	2526.19
533.725	2585.19
533.825	2411.19
533.924	2329.19
534.024	2203.19
534.124	2238.19
534.223	2303.19
534.323	2647.19
534.423	2222.19
534.522	2282.19
534.622	2215.19
534.722	2198.19
534.821	2326.19
534.921	2280.19
535.02	2169.19
535.12	2326.19
535.219	2406.19
535.319	2250.19
535.419	2282.19
535.518	2199.19
535.618	2249.19
535.717	2224.19
535.817	2113.19
535.916	2061.19
536.016	2151.19
536.115	2104.19
536.215	2158.19
536.314	2036.19
536.413	2025.19
536.513	2106.19
536.612	2025.19
536.712	1973.19
536.811	2094.19
536.91	1999.19
537.01	1977.19
537.109	2091.19
537.209	2137.19
537.308	1996.19
537.407	2052.19
537.507	2096.19
537.606	1938.19
537.705	2051.19
537.805	2016.19
537.904	1959.19
