Data from 14g_HRC06701__3__186.txt Node

Date: Thu Apr 18 01:57:57 CDT 2024
User: Estudiantes 2
Spectrometer: HR+C0670
Trigger mode: 4
Integration Time (sec): 1.000000E0
Scans to average: 1
Electric dark correction enabled: true
Nonlinearity correction enabled: false
Boxcar width: 0
XAxis mode: Wavelengths
Number of Pixels in Spectrum: 2048
>>>>>Begin Spectral Data<<<<<
407.81	-151.25
407.921	-151.25
408.032	-151.25
408.143	-129.25
408.254	-81.25
408.365	11.75
408.476	278.75
408.587	18.75
408.699	-45.25
408.81	-67.25
408.921	-73.25
409.032	4.75
409.143	38.75
409.254	31.75
409.365	118.75
409.476	-46.25
409.587	-8.25
409.698	98.75
409.809	73.75
409.92	-54.25
410.031	27.75
410.142	48.75
410.253	-31.25
410.364	51.75
410.475	332.75
410.585	1576.75
410.696	1793.75
410.807	1781.75
410.918	1723.75
411.029	1807.75
411.14	1820.75
411.251	1827.75
411.362	1768.75
411.472	1889.75
411.583	1879.75
411.694	1864.75
411.805	1820.75
411.916	1863.75
412.026	1885.75
412.137	1813.75
412.248	1845.75
412.359	1816.75
412.47	1768.75
412.58	1793.75
412.691	1730.75
412.802	1806.75
412.912	1757.75
413.023	1772.75
413.134	1753.75
413.245	1852.75
413.355	1798.75
413.466	1706.75
413.577	1793.75
413.687	1874.75
413.798	1665.75
413.909	1822.75
414.019	1860.75
414.13	1841.75
414.24	1742.75
414.351	1917.75
414.462	1990.75
414.572	1841.75
414.683	1894.75
414.793	1799.75
414.904	2123.75
415.014	1794.75
415.125	1808.75
415.235	1860.75
415.346	1943.75
415.456	1928.75
415.567	1808.75
415.677	1770.75
415.788	1878.75
415.898	1738.75
416.009	1772.75
416.119	1870.75
416.23	1797.75
416.34	1740.75
416.45	1822.75
416.561	2588.75
416.671	1891.75
416.782	1749.75
416.892	1831.75
417.002	1829.75
417.113	1865.75
417.223	1871.75
417.333	1773.75
417.444	1825.75
417.554	1913.75
417.664	1952.75
417.775	1745.75
417.885	1891.75
417.995	1891.75
418.106	2022.75
418.216	1966.75
418.326	2086.75
418.436	1996.75
418.547	2030.75
418.657	1985.75
418.767	2103.75
418.877	2000.75
418.987	2096.75
419.098	2077.75
419.208	2037.75
419.318	2080.75
419.428	2166.75
419.538	2037.75
419.648	2152.75
419.759	2159.75
419.869	2076.75
419.979	2008.75
420.089	2093.75
420.199	2002.75
420.309	2089.75
420.419	2145.75
420.529	2086.75
420.639	2557.75
420.749	2192.75
420.859	2178.75
420.969	2087.75
421.079	2351.75
421.189	2256.75
421.299	2101.75
421.409	2074.75
421.519	2281.75
421.629	2216.75
421.739	2130.75
421.849	2165.75
421.959	2156.75
422.069	2228.75
422.179	2227.75
422.289	2253.75
422.399	2273.75
422.509	2412.75
422.619	4843.75
422.729	2515.75
422.838	2270.75
422.948	2349.75
423.058	2329.75
423.168	2357.75
423.278	2344.75
423.388	2463.75
423.498	2462.75
423.607	2413.75
423.717	2769.75
423.827	2716.75
423.937	2529.75
424.046	2661.75
424.156	2608.75
424.266	2536.75
424.376	2826.75
424.485	2655.75
424.595	2575.75
424.705	2645.75
424.815	2575.75
424.924	2980.75
425.034	2691.75
425.144	2582.75
425.253	2618.75
425.363	2717.75
425.473	2798.75
425.582	2578.75
425.692	2721.75
425.801	2664.75
425.911	2831.75
426.021	2746.75
426.13	2882.75
426.24	2972.75
426.349	2814.75
426.459	2802.75
426.568	2717.75
426.678	2908.75
426.787	2820.75
426.897	2796.75
427.006	2777.75
427.116	2838.75
427.225	2912.75
427.335	2976.75
427.444	2831.75
427.554	3019.75
427.663	2905.75
427.773	2876.75
427.882	3033.75
427.992	2959.75
428.101	2921.75
428.21	2980.75
428.32	3092.75
428.429	2885.75
428.539	3311.75
428.648	3085.75
428.757	3092.75
428.867	3111.75
428.976	3282.75
429.085	3187.75
429.195	3059.75
429.304	3153.75
429.413	3229.75
429.523	3148.75
429.632	3219.75
429.741	3193.75
429.85	3088.75
429.96	3239.75
430.069	3252.75
430.178	3239.75
430.287	3571.75
430.397	3314.75
430.506	3255.75
430.615	3210.75
430.724	3291.75
430.833	3327.75
430.943	3334.75
431.052	3281.75
431.161	3453.75
431.27	3440.75
431.379	3423.75
431.488	3735.75
431.597	3534.75
431.706	3566.75
431.816	3567.75
431.925	3544.75
432.034	3491.75
432.143	3607.75
432.252	3559.75
432.361	3648.75
432.47	3584.75
432.579	3565.75
432.688	3539.75
432.797	3516.75
432.906	3472.75
433.015	3526.75
433.124	3885.75
433.233	3678.75
433.342	3621.75
433.451	3577.75
433.56	3569.75
433.669	3616.75
433.778	3547.75
433.886	3716.75
433.995	3722.75
434.104	3839.75
434.213	3772.75
434.322	3828.75
434.431	3895.75
434.54	3917.75
434.649	4137.75
434.757	3949.75
434.866	3933.75
434.975	3962.75
435.084	3932.75
435.193	3813.75
435.301	3959.75
435.41	3999.75
435.519	4062.75
435.628	3528.75
435.737	3526.75
435.845	3425.75
435.954	3387.75
436.063	3513.75
436.171	3398.75
436.28	3416.75
436.389	3620.75
436.498	3351.75
436.606	3431.75
436.715	3533.75
436.823	3324.75
436.932	3193.75
437.041	3175.75
437.149	3295.75
437.258	3201.75
437.367	3151.75
437.475	3273.75
437.584	3389.75
437.692	3137.75
437.801	4693.75
437.91	3294.75
438.018	3125.75
438.127	3056.75
438.235	3211.75
438.344	3036.75
438.452	3099.75
438.561	3138.75
438.669	2955.75
438.778	2993.75
438.886	3119.75
438.995	3012.75
439.103	3074.75
439.212	3032.75
439.32	3167.75
439.428	3026.75
439.537	3051.75
439.645	3243.75
439.754	3157.75
439.862	3071.75
439.97	3139.75
440.079	3148.75
440.187	3046.75
440.295	3301.75
440.404	3147.75
440.512	3159.75
440.62	3266.75
440.729	3277.75
440.837	3279.75
440.945	3982.75
441.054	3372.75
441.162	3291.75
441.27	3434.75
441.378	3620.75
441.487	3474.75
441.595	3857.75
441.703	3607.75
441.811	3432.75
441.92	3353.75
442.028	3293.75
442.136	3347.75
442.244	3386.75
442.352	3349.75
442.461	3240.75
442.569	3219.75
442.677	3349.75
442.785	3360.75
442.893	3308.75
443.001	3319.75
443.109	3287.75
443.217	3248.75
443.325	3230.75
443.434	3912.75
443.542	3697.75
443.65	3393.75
443.758	3505.75
443.866	3526.75
443.974	3806.75
444.082	3525.75
444.19	3718.75
444.298	3755.75
444.406	3898.75
444.514	3883.75
444.622	3881.75
444.73	3879.75
444.838	3843.75
444.946	3969.75
445.054	3601.75
445.161	3652.75
445.269	3615.75
445.377	3544.75
445.485	3522.75
445.593	3540.75
445.701	3584.75
445.809	3472.75
445.917	3523.75
446.025	3317.75
446.132	3524.75
446.24	3518.75
446.348	3391.75
446.456	3316.75
446.564	3351.75
446.671	3380.75
446.779	3302.75
446.887	3331.75
446.995	3367.75
447.102	3346.75
447.21	3373.75
447.318	3354.75
447.426	3215.75
447.533	3527.75
447.641	4585.75
447.749	3429.75
447.856	3302.75
447.964	3351.75
448.072	3388.75
448.179	3261.75
448.287	3391.75
448.395	3388.75
448.502	3274.75
448.61	3360.75
448.718	3372.75
448.825	3423.75
448.933	3347.75
449.04	3378.75
449.148	3401.75
449.256	3453.75
449.363	3492.75
449.471	3517.75
449.578	3554.75
449.686	3470.75
449.793	3625.75
449.901	3465.75
450.008	3511.75
450.116	3633.75
450.223	3582.75
450.331	3714.75
450.438	3669.75
450.546	3747.75
450.653	3818.75
450.76	3827.75
450.868	3916.75
450.975	3974.75
451.083	3763.75
451.19	3948.75
451.297	3892.75
451.405	3872.75
451.512	3924.75
451.619	4057.75
451.727	4028.75
451.834	3919.75
451.941	3960.75
452.049	3925.75
452.156	4055.75
452.263	4075.75
452.371	4012.75
452.478	4046.75
452.585	4128.75
452.692	3984.75
452.8	4070.75
452.907	4340.75
453.014	4157.75
453.121	4104.75
453.229	4204.75
453.336	4206.75
453.443	4225.75
453.55	4230.75
453.657	4179.75
453.765	4205.75
453.872	4164.75
453.979	4399.75
454.086	4175.75
454.193	4294.75
454.3	4217.75
454.407	4305.75
454.514	4407.75
454.621	4290.75
454.729	4290.75
454.836	4299.75
454.943	4424.75
455.05	4377.75
455.157	4410.75
455.264	4307.75
455.371	4381.75
455.478	4359.75
455.585	4665.75
455.692	4591.75
455.799	4615.75
455.906	4423.75
456.013	4474.75
456.12	4542.75
456.227	4563.75
456.334	4614.75
456.44	4724.75
456.547	4597.75
456.654	4512.75
456.761	4698.75
456.868	4751.75
456.975	4775.75
457.082	4693.75
457.189	4631.75
457.296	4707.75
457.402	4744.75
457.509	4751.75
457.616	4821.75
457.723	5055.75
457.83	4955.75
457.936	4877.75
458.043	5263.75
458.15	5021.75
458.257	5129.75
458.363	5175.75
458.47	5375.75
458.577	5364.75
458.684	5278.75
458.79	5549.75
458.897	5583.75
459.004	5755.75
459.11	5604.75
459.217	5624.75
459.324	5847.75
459.43	5945.75
459.537	6199.75
459.644	6003.75
459.75	5953.75
459.857	6509.75
459.964	6156.75
460.07	6292.75
460.177	6368.75
460.283	6240.75
460.39	6548.75
460.496	6359.75
460.603	6471.75
460.71	6302.75
460.816	6361.75
460.923	6379.75
461.029	6311.75
461.136	6377.75
461.242	6420.75
461.349	6344.75
461.455	6468.75
461.562	6754.75
461.668	6605.75
461.774	6424.75
461.881	6584.75
461.987	6664.75
462.094	6755.75
462.2	6901.75
462.307	6927.75
462.413	6739.75
462.519	7024.75
462.626	7414.75
462.732	7337.75
462.838	7671.75
462.945	7902.75
463.051	7853.75
463.157	7812.75
463.264	7636.75
463.37	7524.75
463.476	7312.75
463.583	7176.75
463.689	7176.75
463.795	6995.75
463.901	7081.75
464.008	7249.75
464.114	7059.75
464.22	6994.75
464.326	7065.75
464.433	6773.75
464.539	6836.75
464.645	6653.75
464.751	6738.75
464.857	6432.75
464.963	6088.75
465.07	6107.75
465.176	5714.75
465.282	5722.75
465.388	5675.75
465.494	5353.75
465.6	5349.75
465.706	5226.75
465.812	5031.75
465.918	5163.75
466.024	5038.75
466.131	4946.75
466.237	4853.75
466.343	4811.75
466.449	4735.75
466.555	4568.75
466.661	4517.75
466.767	4579.75
466.873	4546.75
466.979	4632.75
467.085	4583.75
467.191	4462.75
467.296	4369.75
467.402	4359.75
467.508	4349.75
467.614	4505.75
467.72	4261.75
467.826	4260.75
467.932	4142.75
468.038	4165.75
468.144	4162.75
468.25	4103.75
468.355	4052.75
468.461	4134.75
468.567	4002.75
468.673	4027.75
468.779	4159.75
468.885	4043.75
468.99	3998.75
469.096	4062.75
469.202	4241.75
469.308	4134.75
469.413	4116.75
469.519	4170.75
469.625	4040.75
469.731	4096.75
469.836	4228.75
469.942	4310.75
470.048	4252.75
470.153	4203.75
470.259	4192.75
470.365	4153.75
470.47	4281.75
470.576	4122.75
470.682	4120.75
470.787	4103.75
470.893	4046.75
470.999	3969.75
471.104	4003.75
471.21	3871.75
471.315	3763.75
471.421	3795.75
471.527	3974.75
471.632	3756.75
471.738	3722.75
471.843	3628.75
471.949	3787.75
472.054	3665.75
472.16	3599.75
472.265	3658.75
472.371	3519.75
472.476	3568.75
472.582	3638.75
472.687	3524.75
472.793	3432.75
472.898	3457.75
473.003	3454.75
473.109	3366.75
473.214	3342.75
473.32	3435.75
473.425	3431.75
473.53	3342.75
473.636	3451.75
473.741	3341.75
473.847	3329.75
473.952	3388.75
474.057	3437.75
474.163	3427.75
474.268	3312.75
474.373	3390.75
474.478	3312.75
474.584	3287.75
474.689	3385.75
474.794	3347.75
474.9	3571.75
475.005	3310.75
475.11	3492.75
475.215	3305.75
475.321	3389.75
475.426	3544.75
475.531	3505.75
475.636	3392.75
475.741	3351.75
475.846	3518.75
475.952	3597.75
476.057	3496.75
476.162	3532.75
476.267	3554.75
476.372	3763.75
476.477	3452.75
476.582	3572.75
476.687	3469.75
476.793	3485.75
476.898	3527.75
477.003	3529.75
477.108	3529.75
477.213	3478.75
477.318	3544.75
477.423	3717.75
477.528	3735.75
477.633	3845.75
477.738	3819.75
477.843	3720.75
477.948	3823.75
478.053	3911.75
478.158	3807.75
478.263	3927.75
478.368	3887.75
478.473	3920.75
478.578	4030.75
478.682	3927.75
478.787	4082.75
478.892	3952.75
478.997	4102.75
479.102	4023.75
479.207	3903.75
479.312	4143.75
479.417	4063.75
479.521	4004.75
479.626	4163.75
479.731	4216.75
479.836	4169.75
479.941	4227.75
480.045	4268.75
480.15	4284.75
480.255	4415.75
480.36	4304.75
480.465	4406.75
480.569	4452.75
480.674	4232.75
480.779	4238.75
480.883	4134.75
480.988	4239.75
481.093	4203.75
481.197	4116.75
481.302	4164.75
481.407	4100.75
481.511	5598.75
481.616	4228.75
481.721	4152.75
481.825	4370.75
481.93	4037.75
482.035	4098.75
482.139	4294.75
482.244	4205.75
482.348	4222.75
482.453	4209.75
482.557	4270.75
482.662	4284.75
482.767	4179.75
482.871	4168.75
482.976	4199.75
483.08	4316.75
483.185	4490.75
483.289	4345.75
483.394	4376.75
483.498	4444.75
483.603	4271.75
483.707	4439.75
483.811	4495.75
483.916	4579.75
484.02	4479.75
484.125	4644.75
484.229	4626.75
484.333	4710.75
484.438	4598.75
484.542	4714.75
484.647	4653.75
484.751	4707.75
484.855	4749.75
484.96	4635.75
485.064	4785.75
485.168	4864.75
485.273	4813.75
485.377	4869.75
485.481	5143.75
485.585	4939.75
485.69	4981.75
485.794	5034.75
485.898	5077.75
486.002	4985.75
486.107	5080.75
486.211	5017.75
486.315	5132.75
486.419	5206.75
486.524	5193.75
486.628	5110.75
486.732	5089.75
486.836	5119.75
486.94	5222.75
487.044	5101.75
487.148	5141.75
487.253	5078.75
487.357	5085.75
487.461	5246.75
487.565	5152.75
487.669	5040.75
487.773	5119.75
487.877	5142.75
487.981	5121.75
488.085	5098.75
488.189	5109.75
488.293	5141.75
488.397	5622.75
488.501	5263.75
488.605	5141.75
488.709	5072.75
488.813	5044.75
488.917	5093.75
489.021	5136.75
489.125	5440.75
489.229	5194.75
489.333	5335.75
489.437	5202.75
489.541	5213.75
489.645	5175.75
489.749	5270.75
489.853	5324.75
489.956	5205.75
490.06	5166.75
490.164	5286.75
490.268	5301.75
490.372	5296.75
490.476	5253.75
490.579	5294.75
490.683	5751.75
490.787	5221.75
490.891	5301.75
490.995	5209.75
491.098	5235.75
491.202	5243.75
491.306	5281.75
491.41	5171.75
491.513	5174.75
491.617	5298.75
491.721	5347.75
491.824	5494.75
491.928	5328.75
492.032	5495.75
492.136	5245.75
492.239	5271.75
492.343	5270.75
492.446	5693.75
492.55	5380.75
492.654	5287.75
492.757	5300.75
492.861	5285.75
492.965	5256.75
493.068	5261.75
493.172	5341.75
493.275	5267.75
493.379	5206.75
493.482	5417.75
493.586	5509.75
493.689	5460.75
493.793	5284.75
493.896	5407.75
494	5473.75
494.103	5421.75
494.207	5639.75
494.31	5666.75
494.414	5453.75
494.517	5401.75
494.621	5298.75
494.724	5242.75
494.828	5305.75
494.931	5318.75
495.034	5256.75
495.138	5335.75
495.241	5190.75
495.345	6008.75
495.448	5381.75
495.551	5211.75
495.655	5170.75
495.758	5167.75
495.861	5049.75
495.965	5242.75
496.068	5264.75
496.171	5252.75
496.274	5249.75
496.378	5314.75
496.481	5281.75
496.584	5218.75
496.687	5381.75
496.791	5362.75
496.894	5406.75
496.997	5393.75
497.1	5362.75
497.204	5509.75
497.307	5414.75
497.41	5656.75
497.513	5859.75
497.616	5695.75
497.719	5549.75
497.823	5696.75
497.926	5839.75
498.029	5954.75
498.132	5936.75
498.235	6108.75
498.338	6344.75
498.441	6451.75
498.544	6494.75
498.647	6669.75
498.75	6988.75
498.853	7151.75
498.956	7317.75
499.059	7628.75
499.163	7583.75
499.266	7855.75
499.369	8310.75
499.471	8585.75
499.574	9000.75
499.677	9145.75
499.78	9583.75
499.883	10093.75
499.986	10556.75
500.089	10685.75
500.192	10956.75
500.295	11055.75
500.398	10996.75
500.501	10938.75
500.604	10626.75
500.707	10284.75
500.809	9918.75
500.912	9488.75
501.015	9164.75
501.118	8593.75
501.221	8380.75
501.324	7943.75
501.426	7623.75
501.529	7374.75
501.632	7174.75
501.735	6746.75
501.837	6550.75
501.94	6473.75
502.043	6280.75
502.146	6030.75
502.248	5940.75
502.351	5901.75
502.454	5829.75
502.557	5526.75
502.659	5503.75
502.762	5239.75
502.865	5205.75
502.967	5091.75
503.07	4970.75
503.173	5010.75
503.275	4965.75
503.378	4883.75
503.48	4771.75
503.583	4841.75
503.686	4750.75
503.788	4930.75
503.891	4739.75
503.993	4982.75
504.096	4649.75
504.198	4785.75
504.301	4668.75
504.403	4656.75
504.506	4605.75
504.608	4504.75
504.711	4538.75
504.813	4408.75
504.916	4304.75
505.018	4309.75
505.121	4063.75
505.223	4175.75
505.326	4078.75
505.428	4106.75
505.531	3922.75
505.633	4023.75
505.735	3896.75
505.838	3829.75
505.94	3884.75
506.042	3734.75
506.145	3745.75
506.247	3825.75
506.35	3743.75
506.452	3685.75
506.554	3787.75
506.656	3718.75
506.759	3549.75
506.861	3561.75
506.963	3537.75
507.066	3644.75
507.168	3728.75
507.27	3587.75
507.372	3519.75
507.475	3525.75
507.577	3594.75
507.679	3543.75
507.781	3450.75
507.883	3468.75
507.986	3437.75
508.088	3383.75
508.19	3505.75
508.292	3518.75
508.394	3344.75
508.496	3367.75
508.598	3430.75
508.701	3460.75
508.803	3397.75
508.905	3256.75
509.007	3389.75
509.109	3389.75
509.211	3369.75
509.313	3361.75
509.415	3230.75
509.517	3403.75
509.619	3276.75
509.721	3397.75
509.823	3262.75
509.925	3443.75
510.027	3304.75
510.129	3312.75
510.231	3293.75
510.333	3240.75
510.435	3177.75
510.537	3332.75
510.639	3297.75
510.741	3244.75
510.843	3327.75
510.945	3158.75
511.047	3330.75
511.148	3274.75
511.25	3229.75
511.352	3180.75
511.454	3120.75
511.556	3306.75
511.658	3278.75
511.76	3295.75
511.861	3359.75
511.963	3276.75
512.065	3197.75
512.167	3214.75
512.268	3412.75
512.37	3215.75
512.472	3254.75
512.574	3361.75
512.676	3306.75
512.777	3209.75
512.879	3188.75
512.981	3275.75
513.082	3285.75
513.184	3344.75
513.286	3782.75
513.387	3351.75
513.489	3487.75
513.591	3437.75
513.692	3367.75
513.794	3356.75
513.896	3386.75
513.997	3239.75
514.099	3280.75
514.2	3383.75
514.302	3418.75
514.404	3397.75
514.505	3299.75
514.607	3550.75
514.708	3440.75
514.81	3491.75
514.911	3492.75
515.013	3561.75
515.114	3515.75
515.216	3488.75
515.317	3591.75
515.419	3512.75
515.52	3638.75
515.622	3601.75
515.723	3680.75
515.825	3791.75
515.926	3809.75
516.027	3630.75
516.129	3726.75
516.23	3948.75
516.332	3937.75
516.433	4015.75
516.534	4089.75
516.636	4135.75
516.737	3982.75
516.838	5213.75
516.94	4454.75
517.041	4352.75
517.142	4530.75
517.244	4657.75
517.345	4592.75
517.446	4629.75
517.547	4747.75
517.649	4590.75
517.75	4690.75
517.851	4694.75
517.952	4865.75
518.054	4630.75
518.155	4711.75
518.256	4512.75
518.357	4577.75
518.458	4338.75
518.56	4345.75
518.661	4181.75
518.762	4205.75
518.863	4320.75
518.964	4191.75
519.065	4023.75
519.166	4048.75
519.268	4004.75
519.369	4166.75
519.47	4023.75
519.571	3918.75
519.672	3849.75
519.773	3900.75
519.874	3945.75
519.975	3938.75
520.076	3876.75
520.177	3954.75
520.278	3788.75
520.379	3780.75
520.48	3795.75
520.581	3734.75
520.682	3780.75
520.783	3681.75
520.884	3834.75
520.985	3768.75
521.086	3737.75
521.187	3765.75
521.288	3645.75
521.389	3770.75
521.489	3761.75
521.59	3603.75
521.691	3754.75
521.792	3703.75
521.893	3797.75
521.994	3778.75
522.095	3768.75
522.195	3681.75
522.296	3800.75
522.397	3843.75
522.498	3763.75
522.599	3575.75
522.699	3720.75
522.8	3738.75
522.901	3799.75
523.002	3736.75
523.102	3931.75
523.203	3719.75
523.304	3855.75
523.405	3669.75
523.505	3719.75
523.606	3790.75
523.707	3763.75
523.807	3778.75
523.908	3661.75
524.009	3848.75
524.109	3752.75
524.21	3713.75
524.31	3809.75
524.411	3918.75
524.512	3857.75
524.612	3755.75
524.713	3936.75
524.813	3705.75
524.914	3945.75
525.014	8004.75
525.115	4089.75
525.216	3627.75
525.316	3695.75
525.417	3779.75
525.517	3618.75
525.618	3777.75
525.718	3751.75
525.819	3652.75
525.919	3742.75
526.019	3721.75
526.12	3731.75
526.22	3678.75
526.321	3617.75
526.421	3573.75
526.522	3639.75
526.622	3584.75
526.722	3684.75
526.823	3652.75
526.923	3672.75
527.023	3786.75
527.124	3603.75
527.224	3703.75
527.324	3614.75
527.425	3628.75
527.525	3551.75
527.625	3574.75
527.726	3718.75
527.826	3769.75
527.926	3661.75
528.026	3764.75
528.127	3672.75
528.227	3592.75
528.327	3781.75
528.427	3675.75
528.528	3678.75
528.628	3847.75
528.728	3653.75
528.828	3708.75
528.928	3749.75
529.029	3762.75
529.129	3669.75
529.229	3713.75
529.329	3758.75
529.429	3759.75
529.529	3789.75
529.629	3709.75
529.729	3526.75
529.829	3709.75
529.93	3573.75
530.03	3557.75
530.13	3540.75
530.23	3568.75
530.33	3742.75
530.43	3617.75
530.53	3542.75
530.63	3631.75
530.73	3504.75
530.83	3405.75
530.93	3514.75
531.03	3464.75
531.13	3549.75
531.23	3485.75
531.33	3503.75
531.429	3528.75
531.529	3465.75
531.629	3522.75
531.729	3385.75
531.829	3445.75
531.929	3534.75
532.029	3447.75
532.129	3473.75
532.229	3519.75
532.328	3383.75
532.428	3402.75
532.528	3362.75
532.628	3341.75
532.728	3505.75
532.827	3361.75
532.927	3464.75
533.027	3300.75
533.127	3535.75
533.227	3557.75
533.326	3438.75
533.426	3281.75
533.526	3486.75
533.625	3461.75
533.725	3665.75
533.825	3454.75
533.924	3271.75
534.024	3184.75
534.124	3251.75
534.223	3292.75
534.323	3666.75
534.423	3274.75
534.522	3277.75
534.622	3144.75
534.722	3241.75
534.821	3281.75
534.921	3237.75
535.02	3109.75
535.12	3324.75
535.219	3223.75
535.319	3209.75
535.419	3263.75
535.518	3128.75
535.618	3087.75
535.717	3183.75
535.817	3050.75
535.916	2872.75
536.016	3102.75
536.115	2978.75
536.215	2943.75
536.314	2890.75
536.413	2923.75
536.513	2973.75
536.612	2911.75
536.712	2890.75
536.811	2896.75
536.91	2892.75
537.01	2817.75
537.109	2874.75
537.209	2855.75
537.308	2790.75
537.407	2896.75
537.507	2803.75
537.606	2815.75
537.705	2941.75
537.805	2801.75
537.904	2774.75
