Data from 14g_HRC06701__27__210.txt Node

Date: Thu Apr 18 01:58:21 CDT 2024
User: Estudiantes 2
Spectrometer: HR+C0670
Trigger mode: 4
Integration Time (sec): 1.000000E0
Scans to average: 1
Electric dark correction enabled: true
Nonlinearity correction enabled: false
Boxcar width: 0
XAxis mode: Wavelengths
Number of Pixels in Spectrum: 2048
>>>>>Begin Spectral Data<<<<<
407.81	-99.69
407.921	-99.69
408.032	-99.69
408.143	-140.69
408.254	-164.69
408.365	47.31
408.476	282.31
408.587	-14.69
408.699	-24.69
408.81	18.31
408.921	-73.69
409.032	-50.69
409.143	63.31
409.254	6.31
409.365	92.31
409.476	-9.69
409.587	-9.69
409.698	78.31
409.809	98.31
409.92	-31.69
410.031	-18.69
410.142	77.31
410.253	77.31
410.364	11.31
410.475	228.31
410.585	1311.31
410.696	1390.31
410.807	1319.31
410.918	1386.31
411.029	1414.31
411.14	1430.31
411.251	1416.31
411.362	1446.31
411.472	1426.31
411.583	1398.31
411.694	1481.31
411.805	1412.31
411.916	1498.31
412.026	1575.31
412.137	1472.31
412.248	1428.31
412.359	1464.31
412.47	1372.31
412.58	1346.31
412.691	1457.31
412.802	1407.31
412.912	1387.31
413.023	1433.31
413.134	1424.31
413.245	1490.31
413.355	1399.31
413.466	1431.31
413.577	1359.31
413.687	1458.31
413.798	1377.31
413.909	1478.31
414.019	1422.31
414.13	1488.31
414.24	1403.31
414.351	1410.31
414.462	1656.31
414.572	1458.31
414.683	1456.31
414.793	1469.31
414.904	1787.31
415.014	1444.31
415.125	1339.31
415.235	1504.31
415.346	1544.31
415.456	1571.31
415.567	1458.31
415.677	1457.31
415.788	1464.31
415.898	1392.31
416.009	1427.31
416.119	1405.31
416.23	1393.31
416.34	1416.31
416.45	1408.31
416.561	2208.31
416.671	1623.31
416.782	1359.31
416.892	1447.31
417.002	1498.31
417.113	1486.31
417.223	1439.31
417.333	1419.31
417.444	1484.31
417.554	1528.31
417.664	1511.31
417.775	1481.31
417.885	1491.31
417.995	1500.31
418.106	1725.31
418.216	1542.31
418.326	1564.31
418.436	1643.31
418.547	1601.31
418.657	1652.31
418.767	1694.31
418.877	1656.31
418.987	1667.31
419.098	1652.31
419.208	1680.31
419.318	1663.31
419.428	1668.31
419.538	1666.31
419.648	1632.31
419.759	1749.31
419.869	1724.31
419.979	1620.31
420.089	1667.31
420.199	1635.31
420.309	1717.31
420.419	1641.31
420.529	1692.31
420.639	2207.31
420.749	1732.31
420.859	1772.31
420.969	1792.31
421.079	1963.31
421.189	1746.31
421.299	1800.31
421.409	1701.31
421.519	1803.31
421.629	1839.31
421.739	1778.31
421.849	1743.31
421.959	1661.31
422.069	1818.31
422.179	1762.31
422.289	1766.31
422.399	1907.31
422.509	1882.31
422.619	4337.31
422.729	2105.31
422.838	1794.31
422.948	1921.31
423.058	1893.31
423.168	1919.31
423.278	1938.31
423.388	1981.31
423.498	2081.31
423.607	2007.31
423.717	2262.31
423.827	2344.31
423.937	2031.31
424.046	2129.31
424.156	2130.31
424.266	2040.31
424.376	2311.31
424.485	2230.31
424.595	2167.31
424.705	2080.31
424.815	2154.31
424.924	2516.31
425.034	2215.31
425.144	2036.31
425.253	2211.31
425.363	2147.31
425.473	2213.31
425.582	2111.31
425.692	2126.31
425.801	2079.31
425.911	2347.31
426.021	2231.31
426.13	2304.31
426.24	2486.31
426.349	2374.31
426.459	2286.31
426.568	2217.31
426.678	2419.31
426.787	2272.31
426.897	2290.31
427.006	2349.31
427.116	2391.31
427.225	2370.31
427.335	2476.31
427.444	2371.31
427.554	2393.31
427.663	2410.31
427.773	2441.31
427.882	2455.31
427.992	2422.31
428.101	2469.31
428.21	2350.31
428.32	2403.31
428.429	2397.31
428.539	2715.31
428.648	2421.31
428.757	2538.31
428.867	2587.31
428.976	2693.31
429.085	2559.31
429.195	2561.31
429.304	2485.31
429.413	2641.31
429.523	2699.31
429.632	2593.31
429.741	2675.31
429.85	2683.31
429.96	2700.31
430.069	2591.31
430.178	2649.31
430.287	2931.31
430.397	2641.31
430.506	2728.31
430.615	2763.31
430.724	2738.31
430.833	2744.31
430.943	2752.31
431.052	2781.31
431.161	2724.31
431.27	2877.31
431.379	2797.31
431.488	3042.31
431.597	2995.31
431.706	2993.31
431.816	2993.31
431.925	2942.31
432.034	2917.31
432.143	2980.31
432.252	2947.31
432.361	3023.31
432.47	2957.31
432.579	2895.31
432.688	2921.31
432.797	2985.31
432.906	2820.31
433.015	3023.31
433.124	3299.31
433.233	3067.31
433.342	3034.31
433.451	3016.31
433.56	2953.31
433.669	2945.31
433.778	2999.31
433.886	3034.31
433.995	3064.31
434.104	3240.31
434.213	3123.31
434.322	3107.31
434.431	3259.31
434.54	3338.31
434.649	3482.31
434.757	3322.31
434.866	3329.31
434.975	3308.31
435.084	3243.31
435.193	3230.31
435.301	3330.31
435.41	3412.31
435.519	3516.31
435.628	3018.31
435.737	2861.31
435.845	2860.31
435.954	2818.31
436.063	2786.31
436.171	2867.31
436.28	2840.31
436.389	2953.31
436.498	2857.31
436.606	2913.31
436.715	2972.31
436.823	2716.31
436.932	2756.31
437.041	2711.31
437.149	2743.31
437.258	2661.31
437.367	2617.31
437.475	2627.31
437.584	2900.31
437.692	2640.31
437.801	4150.31
437.91	2797.31
438.018	2670.31
438.127	2603.31
438.235	2665.31
438.344	2618.31
438.452	2602.31
438.561	2516.31
438.669	2632.31
438.778	2538.31
438.886	2517.31
438.995	2567.31
439.103	2599.31
439.212	2545.31
439.32	2559.31
439.428	2508.31
439.537	2628.31
439.645	2676.31
439.754	2694.31
439.862	2563.31
439.97	2610.31
440.079	2628.31
440.187	2523.31
440.295	2749.31
440.404	2664.31
440.512	2694.31
440.62	2720.31
440.729	2754.31
440.837	2744.31
440.945	3449.31
441.054	2871.31
441.162	2860.31
441.27	2961.31
441.378	2903.31
441.487	2976.31
441.595	3327.31
441.703	3028.31
441.811	2976.31
441.92	2997.31
442.028	2723.31
442.136	2795.31
442.244	2833.31
442.352	2756.31
442.461	2673.31
442.569	2724.31
442.677	2760.31
442.785	2790.31
442.893	2774.31
443.001	2746.31
443.109	2698.31
443.217	2801.31
443.325	2749.31
443.434	3298.31
443.542	3072.31
443.65	2829.31
443.758	2987.31
443.866	2874.31
443.974	3277.31
444.082	3098.31
444.19	3026.31
444.298	3113.31
444.406	3299.31
444.514	3295.31
444.622	3324.31
444.73	3341.31
444.838	3200.31
444.946	3266.31
445.054	3064.31
445.161	3012.31
445.269	2892.31
445.377	3016.31
445.485	2980.31
445.593	2980.31
445.701	3115.31
445.809	2882.31
445.917	2863.31
446.025	2866.31
446.132	2971.31
446.24	2913.31
446.348	2891.31
446.456	2884.31
446.564	2851.31
446.671	2944.31
446.779	2827.31
446.887	2856.31
446.995	2886.31
447.102	2996.31
447.21	2801.31
447.318	2764.31
447.426	2803.31
447.533	3035.31
447.641	4006.31
447.749	2917.31
447.856	2820.31
447.964	2816.31
448.072	2922.31
448.179	2798.31
448.287	2825.31
448.395	2843.31
448.502	2761.31
448.61	2796.31
448.718	2791.31
448.825	2917.31
448.933	2830.31
449.04	2830.31
449.148	2981.31
449.256	2915.31
449.363	2917.31
449.471	2925.31
449.578	3050.31
449.686	2828.31
449.793	3027.31
449.901	2974.31
450.008	3048.31
450.116	3119.31
450.223	3055.31
450.331	3168.31
450.438	3193.31
450.546	3218.31
450.653	3292.31
450.76	3216.31
450.868	3339.31
450.975	3506.31
451.083	3364.31
451.19	3378.31
451.297	3257.31
451.405	3405.31
451.512	3223.31
451.619	3454.31
451.727	3453.31
451.834	3335.31
451.941	3329.31
452.049	3334.31
452.156	3396.31
452.263	3511.31
452.371	3438.31
452.478	3460.31
452.585	3615.31
452.692	3452.31
452.8	3507.31
452.907	3618.31
453.014	3618.31
453.121	3531.31
453.229	3565.31
453.336	3643.31
453.443	3633.31
453.55	3527.31
453.657	3547.31
453.765	3688.31
453.872	3549.31
453.979	3701.31
454.086	3639.31
454.193	3628.31
454.3	3643.31
454.407	3847.31
454.514	3796.31
454.621	3667.31
454.729	3706.31
454.836	3722.31
454.943	3751.31
455.05	3771.31
455.157	3877.31
455.264	3800.31
455.371	3862.31
455.478	3859.31
455.585	4038.31
455.692	3892.31
455.799	4019.31
455.906	3820.31
456.013	3836.31
456.12	3848.31
456.227	3888.31
456.334	3893.31
456.44	4031.31
456.547	4057.31
456.654	3987.31
456.761	4000.31
456.868	4169.31
456.975	4072.31
457.082	3996.31
457.189	4036.31
457.296	4044.31
457.402	4003.31
457.509	4056.31
457.616	4175.31
457.723	4303.31
457.83	4266.31
457.936	4213.31
458.043	4553.31
458.15	4285.31
458.257	4426.31
458.363	4470.31
458.47	4557.31
458.577	4631.31
458.684	4522.31
458.79	4735.31
458.897	4797.31
459.004	4955.31
459.11	4818.31
459.217	4924.31
459.324	5049.31
459.43	5122.31
459.537	5221.31
459.644	5170.31
459.75	5051.31
459.857	5509.31
459.964	5400.31
460.07	5320.31
460.177	5378.31
460.283	5547.31
460.39	5737.31
460.496	5392.31
460.603	5503.31
460.71	5425.31
460.816	5368.31
460.923	5338.31
461.029	5506.31
461.136	5511.31
461.242	5355.31
461.349	5414.31
461.455	5429.31
461.562	5715.31
461.668	5591.31
461.774	5497.31
461.881	5545.31
461.987	5637.31
462.094	5724.31
462.2	5849.31
462.307	5831.31
462.413	5769.31
462.519	5931.31
462.626	6269.31
462.732	6365.31
462.838	6512.31
462.945	6676.31
463.051	6700.31
463.157	6635.31
463.264	6432.31
463.37	6335.31
463.476	6190.31
463.583	6118.31
463.689	5952.31
463.795	6086.31
463.901	6083.31
464.008	6304.31
464.114	6234.31
464.22	6154.31
464.326	6008.31
464.433	5786.31
464.539	5859.31
464.645	5562.31
464.751	5820.31
464.857	5548.31
464.963	5247.31
465.07	5303.31
465.176	5095.31
465.282	4911.31
465.388	4782.31
465.494	4631.31
465.6	4566.31
465.706	4396.31
465.812	4438.31
465.918	4461.31
466.024	4279.31
466.131	4322.31
466.237	4174.31
466.343	4122.31
466.449	4027.31
466.555	4049.31
466.661	3923.31
466.767	3962.31
466.873	3928.31
466.979	4083.31
467.085	3894.31
467.191	3969.31
467.296	3908.31
467.402	3861.31
467.508	3834.31
467.614	3986.31
467.72	3725.31
467.826	3760.31
467.932	3776.31
468.038	3586.31
468.144	3560.31
468.25	3680.31
468.355	3483.31
468.461	3534.31
468.567	3556.31
468.673	3610.31
468.779	3483.31
468.885	3542.31
468.99	3510.31
469.096	3496.31
469.202	3664.31
469.308	3672.31
469.413	3637.31
469.519	3645.31
469.625	3616.31
469.731	3631.31
469.836	3687.31
469.942	3895.31
470.048	3681.31
470.153	3661.31
470.259	3711.31
470.365	3816.31
470.47	3658.31
470.576	3672.31
470.682	3665.31
470.787	3488.31
470.893	3429.31
470.999	3585.31
471.104	3424.31
471.21	3310.31
471.315	3286.31
471.421	3233.31
471.527	3460.31
471.632	3369.31
471.738	3350.31
471.843	3151.31
471.949	3240.31
472.054	3276.31
472.16	3112.31
472.265	3096.31
472.371	3155.31
472.476	3079.31
472.582	3149.31
472.687	3070.31
472.793	3107.31
472.898	2970.31
473.003	3025.31
473.109	2990.31
473.214	2974.31
473.32	3003.31
473.425	3071.31
473.53	3009.31
473.636	2891.31
473.741	2971.31
473.847	2874.31
473.952	2957.31
474.057	3012.31
474.163	3004.31
474.268	2919.31
474.373	2919.31
474.478	2938.31
474.584	2871.31
474.689	2951.31
474.794	2954.31
474.9	3245.31
475.005	2870.31
475.11	3124.31
475.215	2863.31
475.321	2898.31
475.426	3162.31
475.531	3086.31
475.636	2895.31
475.741	2912.31
475.846	3184.31
475.952	3196.31
476.057	3142.31
476.162	3129.31
476.267	3137.31
476.372	3354.31
476.477	3071.31
476.582	3171.31
476.687	3005.31
476.793	3120.31
476.898	3111.31
477.003	3071.31
477.108	3098.31
477.213	3059.31
477.318	3137.31
477.423	3241.31
477.528	3343.31
477.633	3310.31
477.738	3305.31
477.843	3306.31
477.948	3269.31
478.053	3345.31
478.158	3363.31
478.263	3379.31
478.368	3376.31
478.473	3515.31
478.578	3456.31
478.682	3439.31
478.787	3551.31
478.892	3540.31
478.997	3564.31
479.102	3538.31
479.207	3520.31
479.312	3582.31
479.417	3523.31
479.521	3580.31
479.626	3663.31
479.731	3630.31
479.836	3683.31
479.941	3804.31
480.045	3756.31
480.15	3772.31
480.255	3865.31
480.36	3857.31
480.465	3847.31
480.569	4019.31
480.674	3769.31
480.779	3673.31
480.883	3700.31
480.988	3653.31
481.093	3667.31
481.197	3696.31
481.302	3688.31
481.407	3754.31
481.511	4905.31
481.616	3773.31
481.721	3706.31
481.825	3826.31
481.93	3615.31
482.035	3688.31
482.139	3728.31
482.244	3767.31
482.348	3695.31
482.453	3683.31
482.557	3792.31
482.662	3710.31
482.767	3701.31
482.871	3752.31
482.976	3844.31
483.08	3872.31
483.185	3974.31
483.289	3848.31
483.394	3909.31
483.498	3952.31
483.603	3927.31
483.707	4019.31
483.811	3927.31
483.916	4093.31
484.02	3973.31
484.125	4065.31
484.229	4046.31
484.333	4278.31
484.438	4057.31
484.542	4072.31
484.647	4187.31
484.751	4300.31
484.855	4205.31
484.96	4277.31
485.064	4378.31
485.168	4258.31
485.273	4373.31
485.377	4374.31
485.481	4640.31
485.585	4505.31
485.69	4528.31
485.794	4531.31
485.898	4519.31
486.002	4578.31
486.107	4624.31
486.211	4547.31
486.315	4580.31
486.419	4515.31
486.524	4536.31
486.628	4591.31
486.732	4572.31
486.836	4603.31
486.94	4657.31
487.044	4716.31
487.148	4498.31
487.253	4527.31
487.357	4676.31
487.461	4724.31
487.565	4545.31
487.669	4566.31
487.773	4563.31
487.877	4664.31
487.981	4734.31
488.085	4633.31
488.189	4599.31
488.293	4711.31
488.397	5023.31
488.501	4618.31
488.605	4443.31
488.709	4631.31
488.813	4609.31
488.917	4589.31
489.021	4636.31
489.125	4834.31
489.229	4593.31
489.333	4837.31
489.437	4656.31
489.541	4735.31
489.645	4688.31
489.749	4746.31
489.853	4772.31
489.956	4628.31
490.06	4784.31
490.164	4592.31
490.268	4688.31
490.372	4792.31
490.476	4653.31
490.579	4628.31
490.683	5447.31
490.787	4787.31
490.891	4722.31
490.995	4738.31
491.098	4743.31
491.202	4675.31
491.306	4692.31
491.41	4707.31
491.513	4631.31
491.617	4764.31
491.721	4910.31
491.824	4946.31
491.928	4876.31
492.032	4969.31
492.136	4786.31
492.239	4716.31
492.343	4848.31
492.446	5153.31
492.55	4777.31
492.654	4754.31
492.757	4778.31
492.861	4844.31
492.965	4768.31
493.068	4928.31
493.172	4717.31
493.275	4656.31
493.379	4757.31
493.482	4855.31
493.586	4888.31
493.689	5027.31
493.793	4834.31
493.896	4946.31
494	4769.31
494.103	4944.31
494.207	5164.31
494.31	5229.31
494.414	4976.31
494.517	4831.31
494.621	4617.31
494.724	4781.31
494.828	4784.31
494.931	4688.31
495.034	4692.31
495.138	4957.31
495.241	4587.31
495.345	5341.31
495.448	4821.31
495.551	4603.31
495.655	4590.31
495.758	4578.31
495.861	4689.31
495.965	4566.31
496.068	4833.31
496.171	4743.31
496.274	4688.31
496.378	4674.31
496.481	4724.31
496.584	4689.31
496.687	4780.31
496.791	4791.31
496.894	4725.31
496.997	4788.31
497.1	4821.31
497.204	4748.31
497.307	4792.31
497.41	5038.31
497.513	5087.31
497.616	4888.31
497.719	4955.31
497.823	5080.31
497.926	5080.31
498.029	5226.31
498.132	5305.31
498.235	5348.31
498.338	5476.31
498.441	5722.31
498.544	5620.31
498.647	5842.31
498.75	6136.31
498.853	6293.31
498.956	6348.31
499.059	6711.31
499.163	6739.31
499.266	6867.31
499.369	7147.31
499.471	7491.31
499.574	7770.31
499.677	7995.31
499.78	8516.31
499.883	8809.31
499.986	9265.31
500.089	9764.31
500.192	9859.31
500.295	9990.31
500.398	9891.31
500.501	9781.31
500.604	9574.31
500.707	9025.31
500.809	8700.31
500.912	8390.31
501.015	8134.31
501.118	7534.31
501.221	7310.31
501.324	6824.31
501.426	6605.31
501.529	6231.31
501.632	6153.31
501.735	5861.31
501.837	5705.31
501.94	5467.31
502.043	5457.31
502.146	5355.31
502.248	5219.31
502.351	5076.31
502.454	5073.31
502.557	4885.31
502.659	4903.31
502.762	4697.31
502.865	4534.31
502.967	4533.31
503.07	4457.31
503.173	4509.31
503.275	4337.31
503.378	4352.31
503.48	4246.31
503.583	4263.31
503.686	4208.31
503.788	4522.31
503.891	4277.31
503.993	4449.31
504.096	4263.31
504.198	4278.31
504.301	4212.31
504.403	4280.31
504.506	4156.31
504.608	4088.31
504.711	4060.31
504.813	4019.31
504.916	3884.31
505.018	3740.31
505.121	3722.31
505.223	3744.31
505.326	3727.31
505.428	3824.31
505.531	3583.31
505.633	3552.31
505.735	3476.31
505.838	3464.31
505.94	3428.31
506.042	3386.31
506.145	3363.31
506.247	3496.31
506.35	3314.31
506.452	3453.31
506.554	3483.31
506.656	3371.31
506.759	3450.31
506.861	3353.31
506.963	3232.31
507.066	3376.31
507.168	3382.31
507.27	3246.31
507.372	3202.31
507.475	3257.31
507.577	3250.31
507.679	3196.31
507.781	3191.31
507.883	3190.31
507.986	3101.31
508.088	3205.31
508.19	3183.31
508.292	3087.31
508.394	3107.31
508.496	3064.31
508.598	3104.31
508.701	3146.31
508.803	3172.31
508.905	3030.31
509.007	3054.31
509.109	3185.31
509.211	3055.31
509.313	3025.31
509.415	3046.31
509.517	3033.31
509.619	3060.31
509.721	3078.31
509.823	2952.31
509.925	3126.31
510.027	2941.31
510.129	3051.31
510.231	3013.31
510.333	3001.31
510.435	3004.31
510.537	3078.31
510.639	3101.31
510.741	3046.31
510.843	3055.31
510.945	2984.31
511.047	3123.31
511.148	3115.31
511.25	2944.31
511.352	3037.31
511.454	2912.31
511.556	3084.31
511.658	2968.31
511.76	3085.31
511.861	3185.31
511.963	2969.31
512.065	3068.31
512.167	2925.31
512.268	3133.31
512.37	3152.31
512.472	3075.31
512.574	3061.31
512.676	3107.31
512.777	3037.31
512.879	2958.31
512.981	3028.31
513.082	3054.31
513.184	3033.31
513.286	3475.31
513.387	3219.31
513.489	3182.31
513.591	3201.31
513.692	3216.31
513.794	3157.31
513.896	3000.31
513.997	3054.31
514.099	3076.31
514.2	3099.31
514.302	3158.31
514.404	3173.31
514.505	3125.31
514.607	3218.31
514.708	3172.31
514.81	3223.31
514.911	3257.31
515.013	3316.31
515.114	3178.31
515.216	3233.31
515.317	3334.31
515.419	3251.31
515.52	3379.31
515.622	3371.31
515.723	3343.31
515.825	3560.31
515.926	3517.31
516.027	3427.31
516.129	3374.31
516.23	3525.31
516.332	3631.31
516.433	3660.31
516.534	3826.31
516.636	3772.31
516.737	3793.31
516.838	4842.31
516.94	4059.31
517.041	4142.31
517.142	4267.31
517.244	4204.31
517.345	4332.31
517.446	4297.31
517.547	4288.31
517.649	4288.31
517.75	4401.31
517.851	4287.31
517.952	4544.31
518.054	4326.31
518.155	4320.31
518.256	4096.31
518.357	4160.31
518.458	3896.31
518.56	3828.31
518.661	4009.31
518.762	3768.31
518.863	3930.31
518.964	3882.31
519.065	3698.31
519.166	3692.31
519.268	3646.31
519.369	4010.31
519.47	3616.31
519.571	3696.31
519.672	3586.31
519.773	3582.31
519.874	3648.31
519.975	3715.31
520.076	3600.31
520.177	3547.31
520.278	3578.31
520.379	3538.31
520.48	3447.31
520.581	3459.31
520.682	3508.31
520.783	3541.31
520.884	3627.31
520.985	3600.31
521.086	3503.31
521.187	3536.31
521.288	3515.31
521.389	3605.31
521.489	3485.31
521.59	3514.31
521.691	3458.31
521.792	3436.31
521.893	3558.31
521.994	3578.31
522.095	3455.31
522.195	3516.31
522.296	3660.31
522.397	3581.31
522.498	3465.31
522.599	3470.31
522.699	3424.31
522.8	3522.31
522.901	3653.31
523.002	3517.31
523.102	3698.31
523.203	3529.31
523.304	3621.31
523.405	3492.31
523.505	3475.31
523.606	3640.31
523.707	3439.31
523.807	3557.31
523.908	3588.31
524.009	3568.31
524.109	3460.31
524.21	3444.31
524.31	3559.31
524.411	3580.31
524.512	3708.31
524.612	3647.31
524.713	3729.31
524.813	3551.31
524.914	3913.31
525.014	8958.31
525.115	3933.31
525.216	3561.31
525.316	3551.31
525.417	3543.31
525.517	3517.31
525.618	3497.31
525.718	3509.31
525.819	3549.31
525.919	3647.31
526.019	3498.31
526.12	3606.31
526.22	3522.31
526.321	3473.31
526.421	3437.31
526.522	3587.31
526.622	3461.31
526.722	3508.31
526.823	3583.31
526.923	3483.31
527.023	3604.31
527.124	3503.31
527.224	3619.31
527.324	3477.31
527.425	3555.31
527.525	3441.31
527.625	3524.31
527.726	3558.31
527.826	3616.31
527.926	3562.31
528.026	3562.31
528.127	3520.31
528.227	3454.31
528.327	3577.31
528.427	3505.31
528.528	3506.31
528.628	3578.31
528.728	3546.31
528.828	3523.31
528.928	3532.31
529.029	3498.31
529.129	3528.31
529.229	3490.31
529.329	3499.31
529.429	3661.31
529.529	3545.31
529.629	3466.31
529.729	3527.31
529.829	3591.31
529.93	3384.31
530.03	3488.31
530.13	3458.31
530.23	3467.31
530.33	3537.31
530.43	3507.31
530.53	3518.31
530.63	3380.31
530.73	3381.31
530.83	3299.31
530.93	3296.31
531.03	3368.31
531.13	3440.31
531.23	3303.31
531.33	3420.31
531.429	3595.31
531.529	3470.31
531.629	3424.31
531.729	3333.31
531.829	3355.31
531.929	3336.31
532.029	3458.31
532.129	3311.31
532.229	3361.31
532.328	3398.31
532.428	3353.31
532.528	3137.31
532.628	3244.31
532.728	3373.31
532.827	3252.31
532.927	3169.31
533.027	3292.31
533.127	3374.31
533.227	3219.31
533.326	3335.31
533.426	3220.31
533.526	3356.31
533.625	3332.31
533.725	3464.31
533.825	3290.31
533.924	3219.31
534.024	3167.31
534.124	3136.31
534.223	3103.31
534.323	3510.31
534.423	3200.31
534.522	3137.31
534.622	3116.31
534.722	3140.31
534.821	3116.31
534.921	2998.31
535.02	3083.31
535.12	3097.31
535.219	3168.31
535.319	3127.31
535.419	3116.31
535.518	3000.31
535.618	3063.31
535.717	3021.31
535.817	2888.31
535.916	2813.31
536.016	2963.31
536.115	2889.31
536.215	2927.31
536.314	2887.31
536.413	2789.31
536.513	2844.31
536.612	2789.31
536.712	2691.31
536.811	2883.31
536.91	2793.31
537.01	2702.31
537.109	2854.31
537.209	2862.31
537.308	2784.31
537.407	2706.31
537.507	2748.31
537.606	2648.31
537.705	2773.31
537.805	2715.31
537.904	2695.31
