Data from 14g_HRC06701__53__236.txt Node

Date: Thu Apr 18 01:58:47 CDT 2024
User: Estudiantes 2
Spectrometer: HR+C0670
Trigger mode: 4
Integration Time (sec): 1.000000E0
Scans to average: 1
Electric dark correction enabled: true
Nonlinearity correction enabled: false
Boxcar width: 0
XAxis mode: Wavelengths
Number of Pixels in Spectrum: 2048
>>>>>Begin Spectral Data<<<<<
407.81	-127.62
407.921	-127.62
408.032	-127.62
408.143	-108.62
408.254	-162.62
408.365	47.38
408.476	290.38
408.587	-46.62
408.699	-31.62
408.81	12.38
408.921	-45.62
409.032	-42.62
409.143	64.38
409.254	47.38
409.365	78.38
409.476	-45.62
409.587	29.38
409.698	41.38
409.809	82.38
409.92	-8.62
410.031	-49.62
410.142	57.38
410.253	40.38
410.364	41.38
410.475	34.38
410.585	612.38
410.696	709.38
410.807	669.38
410.918	684.38
411.029	793.38
411.14	730.38
411.251	680.38
411.362	785.38
411.472	708.38
411.583	697.38
411.694	798.38
411.805	698.38
411.916	701.38
412.026	844.38
412.137	758.38
412.248	725.38
412.359	716.38
412.47	663.38
412.58	644.38
412.691	717.38
412.802	770.38
412.912	684.38
413.023	654.38
413.134	676.38
413.245	745.38
413.355	654.38
413.466	704.38
413.577	688.38
413.687	745.38
413.798	639.38
413.909	773.38
414.019	698.38
414.13	715.38
414.24	697.38
414.351	744.38
414.462	828.38
414.572	765.38
414.683	741.38
414.793	690.38
414.904	983.38
415.014	726.38
415.125	656.38
415.235	701.38
415.346	865.38
415.456	801.38
415.567	708.38
415.677	755.38
415.788	716.38
415.898	661.38
416.009	697.38
416.119	711.38
416.23	700.38
416.34	676.38
416.45	721.38
416.561	1516.38
416.671	804.38
416.782	641.38
416.892	627.38
417.002	706.38
417.113	805.38
417.223	738.38
417.333	714.38
417.444	737.38
417.554	773.38
417.664	812.38
417.775	717.38
417.885	742.38
417.995	717.38
418.106	902.38
418.216	847.38
418.326	774.38
418.436	827.38
418.547	800.38
418.657	727.38
418.767	842.38
418.877	822.38
418.987	792.38
419.098	784.38
419.208	803.38
419.318	868.38
419.428	793.38
419.538	796.38
419.648	869.38
419.759	816.38
419.869	876.38
419.979	853.38
420.089	806.38
420.199	783.38
420.309	834.38
420.419	832.38
420.529	802.38
420.639	1324.38
420.749	887.38
420.859	868.38
420.969	846.38
421.079	1060.38
421.189	872.38
421.299	881.38
421.409	846.38
421.519	943.38
421.629	938.38
421.739	866.38
421.849	777.38
421.959	799.38
422.069	927.38
422.179	870.38
422.289	794.38
422.399	902.38
422.509	998.38
422.619	4279.38
422.729	1209.38
422.838	891.38
422.948	920.38
423.058	880.38
423.168	939.38
423.278	896.38
423.388	930.38
423.498	1013.38
423.607	1010.38
423.717	1244.38
423.827	1206.38
423.937	984.38
424.046	999.38
424.156	1039.38
424.266	993.38
424.376	1202.38
424.485	1142.38
424.595	1017.38
424.705	940.38
424.815	991.38
424.924	1416.38
425.034	1115.38
425.144	981.38
425.253	1036.38
425.363	1089.38
425.473	1117.38
425.582	1001.38
425.692	1078.38
425.801	1009.38
425.911	1145.38
426.021	1105.38
426.13	1155.38
426.24	1266.38
426.349	1200.38
426.459	1072.38
426.568	1018.38
426.678	1187.38
426.787	1119.38
426.897	1093.38
427.006	1088.38
427.116	1241.38
427.225	1117.38
427.335	1175.38
427.444	1177.38
427.554	1198.38
427.663	1183.38
427.773	1216.38
427.882	1194.38
427.992	1107.38
428.101	1158.38
428.21	1149.38
428.32	1184.38
428.429	1092.38
428.539	1458.38
428.648	1166.38
428.757	1230.38
428.867	1232.38
428.976	1326.38
429.085	1270.38
429.195	1291.38
429.304	1245.38
429.413	1281.38
429.523	1333.38
429.632	1288.38
429.741	1307.38
429.85	1268.38
429.96	1316.38
430.069	1229.38
430.178	1287.38
430.287	1598.38
430.397	1301.38
430.506	1284.38
430.615	1325.38
430.724	1338.38
430.833	1311.38
430.943	1341.38
431.052	1337.38
431.161	1265.38
431.27	1309.38
431.379	1360.38
431.488	1498.38
431.597	1457.38
431.706	1462.38
431.816	1410.38
431.925	1406.38
432.034	1409.38
432.143	1491.38
432.252	1347.38
432.361	1473.38
432.47	1425.38
432.579	1350.38
432.688	1334.38
432.797	1472.38
432.906	1338.38
433.015	1395.38
433.124	1811.38
433.233	1448.38
433.342	1428.38
433.451	1416.38
433.56	1410.38
433.669	1407.38
433.778	1382.38
433.886	1446.38
433.995	1433.38
434.104	1603.38
434.213	1564.38
434.322	1458.38
434.431	1548.38
434.54	1587.38
434.649	1613.38
434.757	1534.38
434.866	1556.38
434.975	1603.38
435.084	1567.38
435.193	1585.38
435.301	1687.38
435.41	1824.38
435.519	1842.38
435.628	1475.38
435.737	1381.38
435.845	1348.38
435.954	1354.38
436.063	1363.38
436.171	1350.38
436.28	1367.38
436.389	1430.38
436.498	1357.38
436.606	1418.38
436.715	1542.38
436.823	1278.38
436.932	1303.38
437.041	1323.38
437.149	1360.38
437.258	1276.38
437.367	1268.38
437.475	1221.38
437.584	1469.38
437.692	1326.38
437.801	2752.38
437.91	1404.38
438.018	1205.38
438.127	1236.38
438.235	1320.38
438.344	1246.38
438.452	1281.38
438.561	1176.38
438.669	1230.38
438.778	1203.38
438.886	1218.38
438.995	1189.38
439.103	1264.38
439.212	1205.38
439.32	1236.38
439.428	1224.38
439.537	1181.38
439.645	1256.38
439.754	1244.38
439.862	1226.38
439.97	1266.38
440.079	1253.38
440.187	1217.38
440.295	1359.38
440.404	1207.38
440.512	1233.38
440.62	1262.38
440.729	1318.38
440.837	1349.38
440.945	1924.38
441.054	1311.38
441.162	1330.38
441.27	1449.38
441.378	1345.38
441.487	1325.38
441.595	1747.38
441.703	1485.38
441.811	1394.38
441.92	1335.38
442.028	1285.38
442.136	1291.38
442.244	1348.38
442.352	1336.38
442.461	1273.38
442.569	1250.38
442.677	1301.38
442.785	1285.38
442.893	1302.38
443.001	1291.38
443.109	1263.38
443.217	1236.38
443.325	1282.38
443.434	1787.38
443.542	1583.38
443.65	1329.38
443.758	1512.38
443.866	1317.38
443.974	1579.38
444.082	1446.38
444.19	1465.38
444.298	1440.38
444.406	1545.38
444.514	1440.38
444.622	1523.38
444.73	1587.38
444.838	1466.38
444.946	1519.38
445.054	1451.38
445.161	1421.38
445.269	1340.38
445.377	1432.38
445.485	1412.38
445.593	1341.38
445.701	1539.38
445.809	1445.38
445.917	1370.38
446.025	1299.38
446.132	1445.38
446.24	1413.38
446.348	1381.38
446.456	1320.38
446.564	1318.38
446.671	1368.38
446.779	1348.38
446.887	1364.38
446.995	1295.38
447.102	1389.38
447.21	1477.38
447.318	1302.38
447.426	1256.38
447.533	1607.38
447.641	2470.38
447.749	1450.38
447.856	1361.38
447.964	1296.38
448.072	1431.38
448.179	1375.38
448.287	1404.38
448.395	1399.38
448.502	1296.38
448.61	1383.38
448.718	1325.38
448.825	1334.38
448.933	1367.38
449.04	1313.38
449.148	1360.38
449.256	1438.38
449.363	1381.38
449.471	1330.38
449.578	1446.38
449.686	1381.38
449.793	1484.38
449.901	1424.38
450.008	1433.38
450.116	1447.38
450.223	1423.38
450.331	1546.38
450.438	1470.38
450.546	1437.38
450.653	1570.38
450.76	1574.38
450.868	1493.38
450.975	1694.38
451.083	1525.38
451.19	1552.38
451.297	1580.38
451.405	1632.38
451.512	1495.38
451.619	1659.38
451.727	1736.38
451.834	1581.38
451.941	1613.38
452.049	1596.38
452.156	1551.38
452.263	1605.38
452.371	1647.38
452.478	1672.38
452.585	1735.38
452.692	1552.38
452.8	1695.38
452.907	1830.38
453.014	1687.38
453.121	1663.38
453.229	1664.38
453.336	1681.38
453.443	1820.38
453.55	1661.38
453.657	1682.38
453.765	1737.38
453.872	1761.38
453.979	1797.38
454.086	1714.38
454.193	1791.38
454.3	1708.38
454.407	1832.38
454.514	1877.38
454.621	1713.38
454.729	1717.38
454.836	1758.38
454.943	1754.38
455.05	1862.38
455.157	1906.38
455.264	1729.38
455.371	1800.38
455.478	1743.38
455.585	1999.38
455.692	1901.38
455.799	1900.38
455.906	1812.38
456.013	1770.38
456.12	1775.38
456.227	1865.38
456.334	1830.38
456.44	1967.38
456.547	1897.38
456.654	1872.38
456.761	1882.38
456.868	1980.38
456.975	2013.38
457.082	1887.38
457.189	1849.38
457.296	1969.38
457.402	1873.38
457.509	1899.38
457.616	2016.38
457.723	2110.38
457.83	1950.38
457.936	1927.38
458.043	2261.38
458.15	1986.38
458.257	2085.38
458.363	2067.38
458.47	2064.38
458.577	2141.38
458.684	2173.38
458.79	2214.38
458.897	2263.38
459.004	2308.38
459.11	2223.38
459.217	2269.38
459.324	2344.38
459.43	2427.38
459.537	2567.38
459.644	2412.38
459.75	2374.38
459.857	2718.38
459.964	2404.38
460.07	2470.38
460.177	2441.38
460.283	2520.38
460.39	2665.38
460.496	2467.38
460.603	2471.38
460.71	2428.38
460.816	2415.38
460.923	2424.38
461.029	2480.38
461.136	2549.38
461.242	2475.38
461.349	2467.38
461.455	2477.38
461.562	2783.38
461.668	2643.38
461.774	2562.38
461.881	2612.38
461.987	2556.38
462.094	2617.38
462.2	2689.38
462.307	2636.38
462.413	2700.38
462.519	2680.38
462.626	2914.38
462.732	2819.38
462.838	2953.38
462.945	3048.38
463.051	2967.38
463.157	3008.38
463.264	2935.38
463.37	2886.38
463.476	2884.38
463.583	2813.38
463.689	2723.38
463.795	2763.38
463.901	2829.38
464.008	2889.38
464.114	2796.38
464.22	2714.38
464.326	2729.38
464.433	2628.38
464.539	2709.38
464.645	2552.38
464.751	2774.38
464.857	2540.38
464.963	2415.38
465.07	2400.38
465.176	2322.38
465.282	2277.38
465.388	2353.38
465.494	2110.38
465.6	2145.38
465.706	2053.38
465.812	1979.38
465.918	2133.38
466.024	2005.38
466.131	1994.38
466.237	1937.38
466.343	1831.38
466.449	1861.38
466.555	1846.38
466.661	1815.38
466.767	1791.38
466.873	1880.38
466.979	2007.38
467.085	1836.38
467.191	1815.38
467.296	1836.38
467.402	1701.38
467.508	1775.38
467.614	1901.38
467.72	1749.38
467.826	1700.38
467.932	1713.38
468.038	1719.38
468.144	1689.38
468.25	1675.38
468.355	1655.38
468.461	1640.38
468.567	1646.38
468.673	1687.38
468.779	1645.38
468.885	1631.38
468.99	1607.38
469.096	1622.38
469.202	1740.38
469.308	1734.38
469.413	1776.38
469.519	1697.38
469.625	1661.38
469.731	1733.38
469.836	1650.38
469.942	1850.38
470.048	1743.38
470.153	1717.38
470.259	1709.38
470.365	1847.38
470.47	1801.38
470.576	1694.38
470.682	1668.38
470.787	1682.38
470.893	1592.38
470.999	1624.38
471.104	1728.38
471.21	1548.38
471.315	1478.38
471.421	1508.38
471.527	1796.38
471.632	1562.38
471.738	1583.38
471.843	1460.38
471.949	1504.38
472.054	1517.38
472.16	1487.38
472.265	1466.38
472.371	1415.38
472.476	1493.38
472.582	1576.38
472.687	1440.38
472.793	1463.38
472.898	1438.38
473.003	1409.38
473.109	1417.38
473.214	1359.38
473.32	1363.38
473.425	1432.38
473.53	1411.38
473.636	1338.38
473.741	1424.38
473.847	1349.38
473.952	1418.38
474.057	1473.38
474.163	1548.38
474.268	1367.38
474.373	1397.38
474.478	1379.38
474.584	1335.38
474.689	1431.38
474.794	1405.38
474.9	1599.38
475.005	1346.38
475.11	1573.38
475.215	1386.38
475.321	1379.38
475.426	1540.38
475.531	1543.38
475.636	1398.38
475.741	1300.38
475.846	1567.38
475.952	1620.38
476.057	1464.38
476.162	1525.38
476.267	1556.38
476.372	1670.38
476.477	1376.38
476.582	1591.38
476.687	1388.38
476.793	1425.38
476.898	1485.38
477.003	1408.38
477.108	1428.38
477.213	1453.38
477.318	1431.38
477.423	1524.38
477.528	1609.38
477.633	1604.38
477.738	1555.38
477.843	1461.38
477.948	1522.38
478.053	1577.38
478.158	1532.38
478.263	1641.38
478.368	1574.38
478.473	1631.38
478.578	1705.38
478.682	1575.38
478.787	1618.38
478.892	1581.38
478.997	1713.38
479.102	1609.38
479.207	1602.38
479.312	1747.38
479.417	1631.38
479.521	1618.38
479.626	1779.38
479.731	1685.38
479.836	1676.38
479.941	1869.38
480.045	1783.38
480.15	1727.38
480.255	1747.38
480.36	1721.38
480.465	1766.38
480.569	1922.38
480.674	1789.38
480.779	1655.38
480.883	1702.38
480.988	1776.38
481.093	1700.38
481.197	1690.38
481.302	1736.38
481.407	1738.38
481.511	3410.38
481.616	1855.38
481.721	1724.38
481.825	1872.38
481.93	1697.38
482.035	1742.38
482.139	1733.38
482.244	1737.38
482.348	1808.38
482.453	1708.38
482.557	1824.38
482.662	1778.38
482.767	1775.38
482.871	1701.38
482.976	1786.38
483.08	1821.38
483.185	1943.38
483.289	1731.38
483.394	1769.38
483.498	1799.38
483.603	1782.38
483.707	1894.38
483.811	1876.38
483.916	1929.38
484.02	1889.38
484.125	1933.38
484.229	1935.38
484.333	1972.38
484.438	1913.38
484.542	1941.38
484.647	1889.38
484.751	1971.38
484.855	1996.38
484.96	2018.38
485.064	2068.38
485.168	1970.38
485.273	1999.38
485.377	2014.38
485.481	2222.38
485.585	2058.38
485.69	2029.38
485.794	2130.38
485.898	2023.38
486.002	2082.38
486.107	2197.38
486.211	2080.38
486.315	2137.38
486.419	2263.38
486.524	2137.38
486.628	2128.38
486.732	2099.38
486.836	2111.38
486.94	2207.38
487.044	2210.38
487.148	2147.38
487.253	2144.38
487.357	2184.38
487.461	2322.38
487.565	2155.38
487.669	2096.38
487.773	2172.38
487.877	2157.38
487.981	2117.38
488.085	2237.38
488.189	2163.38
488.293	2286.38
488.397	2627.38
488.501	2222.38
488.605	2092.38
488.709	2174.38
488.813	2185.38
488.917	2104.38
489.021	2225.38
489.125	2434.38
489.229	2143.38
489.333	2361.38
489.437	2242.38
489.541	2220.38
489.645	2124.38
489.749	2251.38
489.853	2253.38
489.956	2106.38
490.06	2205.38
490.164	2191.38
490.268	2093.38
490.372	2178.38
490.476	2192.38
490.579	2204.38
490.683	2769.38
490.787	2325.38
490.891	2203.38
490.995	2173.38
491.098	2266.38
491.202	2219.38
491.306	2242.38
491.41	2214.38
491.513	2189.38
491.617	2209.38
491.721	2310.38
491.824	2432.38
491.928	2184.38
492.032	2437.38
492.136	2258.38
492.239	2140.38
492.343	2217.38
492.446	2638.38
492.55	2240.38
492.654	2134.38
492.757	2144.38
492.861	2255.38
492.965	2176.38
493.068	2194.38
493.172	2294.38
493.275	2177.38
493.379	2234.38
493.482	2362.38
493.586	2336.38
493.689	2455.38
493.793	2239.38
493.896	2304.38
494	2281.38
494.103	2300.38
494.207	2558.38
494.31	2524.38
494.414	2277.38
494.517	2265.38
494.621	2127.38
494.724	2238.38
494.828	2237.38
494.931	2148.38
495.034	2119.38
495.138	2381.38
495.241	2125.38
495.345	2910.38
495.448	2305.38
495.551	2150.38
495.655	2189.38
495.758	2136.38
495.861	2204.38
495.965	2162.38
496.068	2193.38
496.171	2232.38
496.274	2144.38
496.378	2092.38
496.481	2273.38
496.584	2124.38
496.687	2151.38
496.791	2212.38
496.894	2209.38
496.997	2254.38
497.1	2286.38
497.204	2310.38
497.307	2144.38
497.41	2413.38
497.513	2538.38
497.616	2258.38
497.719	2189.38
497.823	2288.38
497.926	2348.38
498.029	2368.38
498.132	2416.38
498.235	2510.38
498.338	2525.38
498.441	2625.38
498.544	2553.38
498.647	2624.38
498.75	2786.38
498.853	2953.38
498.956	2865.38
499.059	3151.38
499.163	3021.38
499.266	3082.38
499.369	3172.38
499.471	3256.38
499.574	3521.38
499.677	3514.38
499.78	3591.38
499.883	3886.38
499.986	4079.38
500.089	4030.38
500.192	4241.38
500.295	4236.38
500.398	4220.38
500.501	4175.38
500.604	4050.38
500.707	3824.38
500.809	3781.38
500.912	3713.38
501.015	3564.38
501.118	3364.38
501.221	3339.38
501.324	3061.38
501.426	2976.38
501.529	2821.38
501.632	2758.38
501.735	2605.38
501.837	2607.38
501.94	2489.38
502.043	2455.38
502.146	2453.38
502.248	2419.38
502.351	2277.38
502.454	2292.38
502.557	2264.38
502.659	2187.38
502.762	2057.38
502.865	2124.38
502.967	2014.38
503.07	2047.38
503.173	2140.38
503.275	2003.38
503.378	2010.38
503.48	1972.38
503.583	2027.38
503.686	1955.38
503.788	2247.38
503.891	1989.38
503.993	2156.38
504.096	1877.38
504.198	2000.38
504.301	1898.38
504.403	1959.38
504.506	2014.38
504.608	1835.38
504.711	1835.38
504.813	1903.38
504.916	1865.38
505.018	1759.38
505.121	1720.38
505.223	1786.38
505.326	1672.38
505.428	1695.38
505.531	1736.38
505.633	1679.38
505.735	1615.38
505.838	1709.38
505.94	1681.38
506.042	1600.38
506.145	1599.38
506.247	1695.38
506.35	1546.38
506.452	1633.38
506.554	1689.38
506.656	1643.38
506.759	1507.38
506.861	1646.38
506.963	1554.38
507.066	1543.38
507.168	1663.38
507.27	1496.38
507.372	1474.38
507.475	1540.38
507.577	1569.38
507.679	1483.38
507.781	1488.38
507.883	1566.38
507.986	1457.38
508.088	1527.38
508.19	1556.38
508.292	1487.38
508.394	1466.38
508.496	1441.38
508.598	1427.38
508.701	1472.38
508.803	1550.38
508.905	1430.38
509.007	1468.38
509.109	1539.38
509.211	1574.38
509.313	1377.38
509.415	1392.38
509.517	1559.38
509.619	1357.38
509.721	1425.38
509.823	1456.38
509.925	1545.38
510.027	1406.38
510.129	1489.38
510.231	1477.38
510.333	1380.38
510.435	1353.38
510.537	1517.38
510.639	1496.38
510.741	1399.38
510.843	1516.38
510.945	1411.38
511.047	1522.38
511.148	1486.38
511.25	1451.38
511.352	1453.38
511.454	1347.38
511.556	1531.38
511.658	1413.38
511.76	1546.38
511.861	1521.38
511.963	1358.38
512.065	1388.38
512.167	1492.38
512.268	1556.38
512.37	1452.38
512.472	1511.38
512.574	1441.38
512.676	1481.38
512.777	1437.38
512.879	1419.38
512.981	1385.38
513.082	1489.38
513.184	1471.38
513.286	1858.38
513.387	1543.38
513.489	1654.38
513.591	1506.38
513.692	1489.38
513.794	1538.38
513.896	1436.38
513.997	1448.38
514.099	1397.38
514.2	1549.38
514.302	1473.38
514.404	1474.38
514.505	1460.38
514.607	1565.38
514.708	1494.38
514.81	1577.38
514.911	1543.38
515.013	1611.38
515.114	1615.38
515.216	1530.38
515.317	1550.38
515.419	1544.38
515.52	1599.38
515.622	1541.38
515.723	1617.38
515.825	1825.38
515.926	1605.38
516.027	1574.38
516.129	1637.38
516.23	1692.38
516.332	1702.38
516.433	1735.38
516.534	1830.38
516.636	1752.38
516.737	1773.38
516.838	2691.38
516.94	1910.38
517.041	1864.38
517.142	2058.38
517.244	1967.38
517.345	1982.38
517.446	2053.38
517.547	1988.38
517.649	1935.38
517.75	2058.38
517.851	1941.38
517.952	2234.38
518.054	2029.38
518.155	2038.38
518.256	1878.38
518.357	2061.38
518.458	1872.38
518.56	1807.38
518.661	1773.38
518.762	1868.38
518.863	1881.38
518.964	1906.38
519.065	1782.38
519.166	1685.38
519.268	1732.38
519.369	1947.38
519.47	1744.38
519.571	1732.38
519.672	1671.38
519.773	1701.38
519.874	1749.38
519.975	1737.38
520.076	1767.38
520.177	1781.38
520.278	1670.38
520.379	1815.38
520.48	1590.38
520.581	1644.38
520.682	1638.38
520.783	1602.38
520.884	1729.38
520.985	1713.38
521.086	1635.38
521.187	1649.38
521.288	1660.38
521.389	1649.38
521.489	1657.38
521.59	1625.38
521.691	1744.38
521.792	1628.38
521.893	1800.38
521.994	1884.38
522.095	1648.38
522.195	1742.38
522.296	1830.38
522.397	1815.38
522.498	1725.38
522.599	1622.38
522.699	1724.38
522.8	1670.38
522.901	1781.38
523.002	1780.38
523.102	1901.38
523.203	1720.38
523.304	1943.38
523.405	1662.38
523.505	1694.38
523.606	1731.38
523.707	1816.38
523.807	1762.38
523.908	1773.38
524.009	1922.38
524.109	1777.38
524.21	1716.38
524.31	1830.38
524.411	1871.38
524.512	1838.38
524.612	1809.38
524.713	1908.38
524.813	1749.38
524.914	2006.38
525.014	6030.38
525.115	2074.38
525.216	1635.38
525.316	1761.38
525.417	1761.38
525.517	1706.38
525.618	1764.38
525.718	1684.38
525.819	1625.38
525.919	1781.38
526.019	1672.38
526.12	1727.38
526.22	1700.38
526.321	1652.38
526.421	1596.38
526.522	1644.38
526.622	1648.38
526.722	1593.38
526.823	1671.38
526.923	1776.38
527.023	1757.38
527.124	1659.38
527.224	1738.38
527.324	1621.38
527.425	1698.38
527.525	1681.38
527.625	1716.38
527.726	1627.38
527.826	1780.38
527.926	1766.38
528.026	1719.38
528.127	1632.38
528.227	1794.38
528.327	1797.38
528.427	1730.38
528.528	1809.38
528.628	1800.38
528.728	1742.38
528.828	1865.38
528.928	1858.38
529.029	1644.38
529.129	1760.38
529.229	1872.38
529.329	1708.38
529.429	1785.38
529.529	1897.38
529.629	1733.38
529.729	1671.38
529.829	1906.38
529.93	1673.38
530.03	1760.38
530.13	1703.38
530.23	1661.38
530.33	1769.38
530.43	1669.38
530.53	1708.38
530.63	1658.38
530.73	1590.38
530.83	1564.38
530.93	1554.38
531.03	1562.38
531.13	1680.38
531.23	1534.38
531.33	1655.38
531.429	1669.38
531.529	1663.38
531.629	1598.38
531.729	1566.38
531.829	1631.38
531.929	1590.38
532.029	1628.38
532.129	1649.38
532.229	1613.38
532.328	1555.38
532.428	1605.38
532.528	1498.38
532.628	1507.38
532.728	1599.38
532.827	1527.38
532.927	1589.38
533.027	1602.38
533.127	1775.38
533.227	1636.38
533.326	1645.38
533.426	1620.38
533.526	1686.38
533.625	1689.38
533.725	1868.38
533.825	1582.38
533.924	1501.38
534.024	1430.38
534.124	1477.38
534.223	1513.38
534.323	1889.38
534.423	1576.38
534.522	1513.38
534.622	1424.38
534.722	1510.38
534.821	1568.38
534.921	1438.38
535.02	1459.38
535.12	1519.38
535.219	1549.38
535.319	1559.38
535.419	1615.38
535.518	1451.38
535.618	1479.38
535.717	1620.38
535.817	1374.38
535.916	1261.38
536.016	1512.38
536.115	1367.38
536.215	1306.38
536.314	1388.38
536.413	1312.38
536.513	1336.38
536.612	1357.38
536.712	1270.38
536.811	1321.38
536.91	1264.38
537.01	1293.38
537.109	1351.38
537.209	1351.38
537.308	1356.38
537.407	1362.38
537.507	1388.38
537.606	1384.38
537.705	1336.38
537.805	1288.38
537.904	1332.38
538.003	1394.38
538.102	1458.38
538.202	1393.38
538.301	1428.38
538.4	1441.38
538.499	1387.38
538.599	1472.38
538.698	1526.38
