Data from 14g_HRC06701__44__227.txt Node

Date: Thu Apr 18 01:58:38 CDT 2024
User: Estudiantes 2
Spectrometer: HR+C0670
Trigger mode: 4
Integration Time (sec): 1.000000E0
Scans to average: 1
Electric dark correction enabled: true
Nonlinearity correction enabled: false
Boxcar width: 0
XAxis mode: Wavelengths
Number of Pixels in Spectrum: 2048
>>>>>Begin Spectral Data<<<<<
407.81	-95.31
407.921	-95.31
408.032	-95.31
408.143	-158.31
408.254	-121.31
408.365	47.69
408.476	262.69
408.587	-25.31
408.699	-5.31
408.81	17.69
408.921	-67.31
409.032	-31.31
409.143	65.69
409.254	20.69
409.365	94.69
409.476	5.69
409.587	-18.31
409.698	7.69
409.809	82.69
409.92	-45.31
410.031	-49.31
410.142	57.69
410.253	30.69
410.364	22.69
410.475	1760.69
410.585	8448.69
410.696	9089.69
410.807	8969.69
410.918	8868.69
411.029	9001.69
411.14	8905.69
411.251	9091.69
411.362	9094.69
411.472	9196.69
411.583	9116.69
411.694	9316.69
411.805	9242.69
411.916	9468.69
412.026	9343.69
412.137	9302.69
412.248	9222.69
412.359	9339.69
412.47	9055.69
412.58	8848.69
412.691	9200.69
412.802	8958.69
412.912	9035.69
413.023	9046.69
413.134	9026.69
413.245	8844.69
413.355	9156.69
413.466	9080.69
413.577	9035.69
413.687	9049.69
413.798	9019.69
413.909	9145.69
414.019	9088.69
414.13	9178.69
414.24	8944.69
414.351	9114.69
414.462	9463.69
414.572	9154.69
414.683	9194.69
414.793	9303.69
414.904	9413.69
415.014	9081.69
415.125	8961.69
415.235	9148.69
415.346	9296.69
415.456	9192.69
415.567	9063.69
415.677	8992.69
415.788	9088.69
415.898	9053.69
416.009	8996.69
416.119	9119.69
416.23	9048.69
416.34	9047.69
416.45	9095.69
416.561	10002.69
416.671	9106.69
416.782	9191.69
416.892	9208.69
417.002	9240.69
417.113	9418.69
417.223	9243.69
417.333	9225.69
417.444	9420.69
417.554	9442.69
417.664	9573.69
417.775	9400.69
417.885	9660.69
417.995	9574.69
418.106	10059.69
418.216	9675.69
418.326	9927.69
418.436	10137.69
418.547	10199.69
418.657	10140.69
418.767	10363.69
418.877	10342.69
418.987	10375.69
419.098	10437.69
419.208	10432.69
419.318	10346.69
419.428	10579.69
419.538	10225.69
419.648	10360.69
419.759	10236.69
419.869	10270.69
419.979	10239.69
420.089	10323.69
420.199	10329.69
420.309	10359.69
420.419	10323.69
420.529	10526.69
420.639	11016.69
420.749	10608.69
420.859	10571.69
420.969	10749.69
421.079	10815.69
421.189	10632.69
421.299	10611.69
421.409	10770.69
421.519	10934.69
421.629	11139.69
421.739	10977.69
421.849	10964.69
421.959	11101.69
422.069	11066.69
422.179	11039.69
422.289	11231.69
422.399	11572.69
422.509	11550.69
422.619	14548.69
422.729	11959.69
422.838	11520.69
422.948	11864.69
423.058	11894.69
423.168	11933.69
423.278	12012.69
423.388	12352.69
423.498	12762.69
423.607	12405.69
423.717	12797.69
423.827	12815.69
423.937	12709.69
424.046	12666.69
424.156	12989.69
424.266	12886.69
424.376	13242.69
424.485	13016.69
424.595	12950.69
424.705	13121.69
424.815	13143.69
424.924	13668.69
425.034	13169.69
425.144	13096.69
425.253	13130.69
425.363	13440.69
425.473	13369.69
425.582	13406.69
425.692	13474.69
425.801	13252.69
425.911	13825.69
426.021	13569.69
426.13	13977.69
426.24	13752.69
426.349	14111.69
426.459	13914.69
426.568	13829.69
426.678	14167.69
426.787	14106.69
426.897	14021.69
427.006	14277.69
427.116	14263.69
427.225	14419.69
427.335	14548.69
427.444	14456.69
427.554	14419.69
427.663	14548.69
427.773	14548.69
427.882	14548.69
427.992	14548.69
428.101	14548.69
428.21	14548.69
428.32	14548.69
428.429	14548.69
428.539	14548.69
428.648	14548.69
428.757	14548.69
428.867	14548.69
428.976	14548.69
429.085	14548.69
429.195	14548.69
429.304	14548.69
429.413	14548.69
429.523	14548.69
429.632	14548.69
429.741	14548.69
429.85	14548.69
429.96	14548.69
430.069	14548.69
430.178	14548.69
430.287	14548.69
430.397	14548.69
430.506	14548.69
430.615	14548.69
430.724	14548.69
430.833	14548.69
430.943	14548.69
431.052	14548.69
431.161	14548.69
431.27	14548.69
431.379	14548.69
431.488	14548.69
431.597	14548.69
431.706	14548.69
431.816	14548.69
431.925	14548.69
432.034	14548.69
432.143	14548.69
432.252	14548.69
432.361	14548.69
432.47	14548.69
432.579	14548.69
432.688	14548.69
432.797	14548.69
432.906	14548.69
433.015	14548.69
433.124	14548.69
433.233	14548.69
433.342	14548.69
433.451	14548.69
433.56	14548.69
433.669	14548.69
433.778	14548.69
433.886	14548.69
433.995	14548.69
434.104	14548.69
434.213	14548.69
434.322	14548.69
434.431	14548.69
434.54	14548.69
434.649	14548.69
434.757	14548.69
434.866	14548.69
434.975	14548.69
435.084	14548.69
435.193	14548.69
435.301	14548.69
435.41	14548.69
435.519	14548.69
435.628	14548.69
435.737	14548.69
435.845	14548.69
435.954	14548.69
436.063	14548.69
436.171	14548.69
436.28	14548.69
436.389	14548.69
436.498	14548.69
436.606	14548.69
436.715	14548.69
436.823	14548.69
436.932	14548.69
437.041	14548.69
437.149	14548.69
437.258	14548.69
437.367	14548.69
437.475	14548.69
437.584	14548.69
437.692	14548.69
437.801	14548.69
437.91	14548.69
438.018	14548.69
438.127	14548.69
438.235	14548.69
438.344	14548.69
438.452	14548.69
438.561	14548.69
438.669	14548.69
438.778	14548.69
438.886	14548.69
438.995	14548.69
439.103	14548.69
439.212	14548.69
439.32	14548.69
439.428	14548.69
439.537	14548.69
439.645	14548.69
439.754	14548.69
439.862	14548.69
439.97	14548.69
440.079	14548.69
440.187	14548.69
440.295	14548.69
440.404	14548.69
440.512	14548.69
440.62	14548.69
440.729	14548.69
440.837	14548.69
440.945	14548.69
441.054	14548.69
441.162	14548.69
441.27	14548.69
441.378	14548.69
441.487	14548.69
441.595	14548.69
441.703	14548.69
441.811	14548.69
441.92	14548.69
442.028	14548.69
442.136	14548.69
442.244	14548.69
442.352	14548.69
442.461	14548.69
442.569	14548.69
442.677	14548.69
442.785	14548.69
442.893	14548.69
443.001	14548.69
443.109	14548.69
443.217	14548.69
443.325	14548.69
443.434	14548.69
443.542	14548.69
443.65	14548.69
443.758	14548.69
443.866	14548.69
443.974	14548.69
444.082	14548.69
444.19	14548.69
444.298	14548.69
444.406	14548.69
444.514	14548.69
444.622	14548.69
444.73	14548.69
444.838	14548.69
444.946	14548.69
445.054	14548.69
445.161	14548.69
445.269	14548.69
445.377	14548.69
445.485	14548.69
445.593	14548.69
445.701	14548.69
445.809	14548.69
445.917	14548.69
446.025	14548.69
446.132	14548.69
446.24	14548.69
446.348	14548.69
446.456	14548.69
446.564	14548.69
446.671	14548.69
446.779	14548.69
446.887	14548.69
446.995	14548.69
447.102	14548.69
447.21	14548.69
447.318	14548.69
447.426	14548.69
447.533	14548.69
447.641	14548.69
447.749	14548.69
447.856	14548.69
447.964	14548.69
448.072	14548.69
448.179	14548.69
448.287	14548.69
448.395	14548.69
448.502	14548.69
448.61	14548.69
448.718	14548.69
448.825	14548.69
448.933	14548.69
449.04	14548.69
449.148	14548.69
449.256	14548.69
449.363	14548.69
449.471	14548.69
449.578	14548.69
449.686	14548.69
449.793	14548.69
449.901	14548.69
450.008	14548.69
450.116	14548.69
450.223	14548.69
450.331	14548.69
450.438	14548.69
450.546	14548.69
450.653	14548.69
450.76	14548.69
450.868	14548.69
450.975	14548.69
451.083	14548.69
451.19	14548.69
451.297	14548.69
451.405	14548.69
451.512	14548.69
451.619	14548.69
451.727	14548.69
451.834	14548.69
451.941	14548.69
452.049	14548.69
452.156	14548.69
452.263	14548.69
452.371	14548.69
452.478	14548.69
452.585	14548.69
452.692	14548.69
452.8	14548.69
452.907	14548.69
453.014	14548.69
453.121	14548.69
453.229	14548.69
453.336	14548.69
453.443	14548.69
453.55	14548.69
453.657	14548.69
453.765	14548.69
453.872	14548.69
453.979	14548.69
454.086	14548.69
454.193	14548.69
454.3	14548.69
454.407	14548.69
454.514	14548.69
454.621	14548.69
454.729	14548.69
454.836	14548.69
454.943	14548.69
455.05	14548.69
455.157	14548.69
455.264	14548.69
455.371	14548.69
455.478	14548.69
455.585	14548.69
455.692	14548.69
455.799	14548.69
455.906	14548.69
456.013	14548.69
456.12	14548.69
456.227	14548.69
456.334	14548.69
456.44	14548.69
456.547	14548.69
456.654	14548.69
456.761	14548.69
456.868	14548.69
456.975	14548.69
457.082	14548.69
457.189	14548.69
457.296	14548.69
457.402	14548.69
457.509	14548.69
457.616	14548.69
457.723	14548.69
457.83	14548.69
457.936	14548.69
458.043	14548.69
458.15	14548.69
458.257	14548.69
458.363	14548.69
458.47	14548.69
458.577	14548.69
458.684	14548.69
458.79	14548.69
458.897	14548.69
459.004	14548.69
459.11	14548.69
459.217	14548.69
459.324	14548.69
459.43	14548.69
459.537	14548.69
459.644	14548.69
459.75	14548.69
459.857	14548.69
459.964	14548.69
460.07	14548.69
460.177	14548.69
460.283	14548.69
460.39	14548.69
460.496	14548.69
460.603	14548.69
460.71	14548.69
460.816	14548.69
460.923	14548.69
461.029	14548.69
461.136	14548.69
461.242	14548.69
461.349	14548.69
461.455	14548.69
461.562	14548.69
461.668	14548.69
461.774	14548.69
461.881	14548.69
461.987	14548.69
462.094	14548.69
462.2	14548.69
462.307	14548.69
462.413	14548.69
462.519	14548.69
462.626	14548.69
462.732	14548.69
462.838	14548.69
462.945	14548.69
463.051	14548.69
463.157	14548.69
463.264	14548.69
463.37	14548.69
463.476	14548.69
463.583	14548.69
463.689	14548.69
463.795	14548.69
463.901	14548.69
464.008	14548.69
464.114	14548.69
464.22	14548.69
464.326	14548.69
464.433	14548.69
464.539	14548.69
464.645	14548.69
464.751	14548.69
464.857	14548.69
464.963	14548.69
465.07	14548.69
465.176	14548.69
465.282	14548.69
465.388	14548.69
465.494	14548.69
465.6	14548.69
465.706	14548.69
465.812	14548.69
465.918	14548.69
466.024	14548.69
466.131	14548.69
466.237	14548.69
466.343	14548.69
466.449	14548.69
466.555	14548.69
466.661	14548.69
466.767	14548.69
466.873	14548.69
466.979	14548.69
467.085	14548.69
467.191	14548.69
467.296	14548.69
467.402	14548.69
467.508	14548.69
467.614	14548.69
467.72	14548.69
467.826	14548.69
467.932	14548.69
468.038	14548.69
468.144	14548.69
468.25	14548.69
468.355	14548.69
468.461	14548.69
468.567	14548.69
468.673	14548.69
468.779	14548.69
468.885	14548.69
468.99	14548.69
469.096	14548.69
469.202	14548.69
469.308	14548.69
469.413	14548.69
469.519	14548.69
469.625	14548.69
469.731	14548.69
469.836	14548.69
469.942	14548.69
470.048	14548.69
470.153	14548.69
470.259	14548.69
470.365	14548.69
470.47	14548.69
470.576	14548.69
470.682	14548.69
470.787	14548.69
470.893	14548.69
470.999	14548.69
471.104	14548.69
471.21	14548.69
471.315	14548.69
471.421	14548.69
471.527	14548.69
471.632	14548.69
471.738	14548.69
471.843	14548.69
471.949	14548.69
472.054	14548.69
472.16	14548.69
472.265	14548.69
472.371	14548.69
472.476	14548.69
472.582	14548.69
472.687	14548.69
472.793	14548.69
472.898	14548.69
473.003	14548.69
473.109	14548.69
473.214	14548.69
473.32	14548.69
473.425	14548.69
473.53	14548.69
473.636	14548.69
473.741	14548.69
473.847	14548.69
473.952	14548.69
474.057	14548.69
474.163	14548.69
474.268	14548.69
474.373	14548.69
474.478	14548.69
474.584	14548.69
474.689	14548.69
474.794	14548.69
474.9	14548.69
475.005	14548.69
475.11	14548.69
475.215	14548.69
475.321	14548.69
475.426	14548.69
475.531	14548.69
475.636	14548.69
475.741	14548.69
475.846	14548.69
475.952	14548.69
476.057	14548.69
476.162	14548.69
476.267	14548.69
476.372	14548.69
476.477	14548.69
476.582	14548.69
476.687	14548.69
476.793	14548.69
476.898	14548.69
477.003	14548.69
477.108	14548.69
477.213	14548.69
477.318	14548.69
477.423	14548.69
477.528	14548.69
477.633	14548.69
477.738	14548.69
477.843	14548.69
477.948	14548.69
478.053	14548.69
478.158	14548.69
478.263	14548.69
478.368	14548.69
478.473	14548.69
478.578	14548.69
478.682	14548.69
478.787	14548.69
478.892	14548.69
478.997	14548.69
479.102	14548.69
479.207	14548.69
479.312	14548.69
479.417	14548.69
479.521	14548.69
479.626	14548.69
479.731	14548.69
479.836	14548.69
479.941	14548.69
480.045	14548.69
480.15	14548.69
480.255	14548.69
480.36	14548.69
480.465	14548.69
480.569	14548.69
480.674	14548.69
480.779	14548.69
480.883	14548.69
480.988	14548.69
481.093	14548.69
481.197	14548.69
481.302	14548.69
481.407	14548.69
481.511	14548.69
481.616	14548.69
481.721	14548.69
481.825	14548.69
481.93	14548.69
482.035	14548.69
482.139	14548.69
482.244	14548.69
482.348	14548.69
482.453	14548.69
482.557	14548.69
482.662	14548.69
482.767	14548.69
482.871	14548.69
482.976	14548.69
483.08	14548.69
483.185	14548.69
483.289	14548.69
483.394	14548.69
483.498	14548.69
483.603	14548.69
483.707	14548.69
483.811	14548.69
483.916	14548.69
484.02	14548.69
484.125	14548.69
484.229	14548.69
484.333	14548.69
484.438	14548.69
484.542	14548.69
484.647	14548.69
484.751	14548.69
484.855	14548.69
484.96	14548.69
485.064	14548.69
485.168	14548.69
485.273	14548.69
485.377	14548.69
485.481	14548.69
485.585	14548.69
485.69	14548.69
485.794	14548.69
485.898	14548.69
486.002	14548.69
486.107	14548.69
486.211	14548.69
486.315	14548.69
486.419	14548.69
486.524	14548.69
486.628	14548.69
486.732	14548.69
486.836	14548.69
486.94	14548.69
487.044	14548.69
487.148	14548.69
487.253	14548.69
487.357	14548.69
487.461	14548.69
487.565	14548.69
487.669	14548.69
487.773	14548.69
487.877	14548.69
487.981	14548.69
488.085	14548.69
488.189	14548.69
488.293	14548.69
488.397	14548.69
488.501	14548.69
488.605	14548.69
488.709	14548.69
488.813	14548.69
488.917	14548.69
489.021	14548.69
489.125	14548.69
489.229	14548.69
489.333	14548.69
489.437	14548.69
489.541	14548.69
489.645	14548.69
489.749	14548.69
489.853	14548.69
489.956	14548.69
490.06	14548.69
490.164	14548.69
490.268	14548.69
490.372	14548.69
490.476	14548.69
490.579	14548.69
490.683	14548.69
490.787	14548.69
490.891	14548.69
490.995	14548.69
491.098	14548.69
491.202	14548.69
491.306	14548.69
491.41	14548.69
491.513	14548.69
491.617	14548.69
491.721	14548.69
491.824	14548.69
491.928	14548.69
492.032	14548.69
492.136	14548.69
492.239	14548.69
492.343	14548.69
492.446	14548.69
492.55	14548.69
492.654	14548.69
492.757	14548.69
492.861	14548.69
492.965	14548.69
493.068	14548.69
493.172	14548.69
493.275	14548.69
493.379	14548.69
493.482	14548.69
493.586	14548.69
493.689	14548.69
493.793	14548.69
493.896	14548.69
494	14548.69
494.103	14548.69
494.207	14548.69
494.31	14548.69
494.414	14548.69
494.517	14548.69
494.621	14548.69
494.724	14548.69
494.828	14548.69
494.931	14548.69
495.034	14548.69
495.138	14548.69
495.241	14548.69
495.345	14548.69
495.448	14548.69
495.551	14548.69
495.655	14548.69
495.758	14548.69
495.861	14548.69
495.965	14548.69
496.068	14548.69
496.171	14548.69
496.274	14548.69
496.378	14548.69
496.481	14548.69
496.584	14548.69
496.687	14548.69
496.791	14548.69
496.894	14548.69
496.997	14548.69
497.1	14548.69
497.204	14548.69
497.307	14548.69
497.41	14548.69
497.513	14548.69
497.616	14548.69
497.719	14548.69
497.823	14548.69
497.926	14548.69
498.029	14548.69
498.132	14548.69
498.235	14548.69
498.338	14548.69
498.441	14548.69
498.544	14548.69
498.647	14548.69
498.75	14548.69
498.853	14548.69
498.956	14548.69
499.059	14548.69
499.163	14548.69
499.266	14548.69
499.369	14548.69
499.471	14548.69
499.574	14548.69
499.677	14548.69
499.78	14548.69
499.883	14548.69
499.986	14548.69
500.089	14548.69
500.192	14548.69
500.295	14548.69
500.398	14548.69
500.501	14548.69
500.604	14548.69
500.707	14548.69
500.809	14548.69
500.912	14548.69
501.015	14548.69
501.118	14548.69
501.221	14548.69
501.324	14548.69
501.426	14548.69
501.529	14548.69
501.632	14548.69
501.735	14548.69
501.837	14548.69
501.94	14548.69
502.043	14548.69
502.146	14548.69
502.248	14548.69
502.351	14548.69
502.454	14548.69
502.557	14548.69
502.659	14548.69
502.762	14548.69
502.865	14548.69
502.967	14548.69
503.07	14548.69
503.173	14548.69
503.275	14548.69
503.378	14548.69
503.48	14548.69
503.583	14548.69
503.686	14548.69
503.788	14548.69
503.891	14548.69
503.993	14548.69
504.096	14548.69
504.198	14548.69
504.301	14548.69
504.403	14548.69
504.506	14548.69
504.608	14548.69
504.711	14548.69
504.813	14548.69
504.916	14548.69
505.018	14548.69
505.121	14548.69
505.223	14548.69
505.326	14548.69
505.428	14548.69
505.531	14548.69
505.633	14548.69
505.735	14548.69
505.838	14548.69
505.94	14548.69
506.042	14548.69
506.145	14548.69
506.247	14548.69
506.35	14548.69
506.452	14548.69
506.554	14548.69
506.656	14548.69
506.759	14548.69
506.861	14548.69
506.963	14548.69
507.066	14548.69
507.168	14548.69
507.27	14548.69
507.372	14548.69
507.475	14548.69
507.577	14548.69
507.679	14548.69
507.781	14548.69
507.883	14548.69
507.986	14548.69
508.088	14548.69
508.19	14548.69
508.292	14548.69
508.394	14548.69
508.496	14548.69
508.598	14548.69
508.701	14548.69
508.803	14548.69
508.905	14548.69
509.007	14548.69
509.109	14548.69
509.211	14548.69
509.313	14548.69
509.415	14548.69
509.517	14548.69
509.619	14548.69
509.721	14548.69
509.823	14548.69
509.925	14548.69
510.027	14548.69
510.129	14548.69
510.231	14548.69
510.333	14548.69
510.435	14548.69
510.537	14548.69
510.639	14548.69
510.741	14548.69
510.843	14548.69
510.945	14548.69
511.047	14548.69
511.148	14548.69
511.25	14548.69
511.352	14548.69
511.454	14548.69
511.556	14548.69
511.658	14548.69
511.76	14548.69
511.861	14548.69
511.963	14548.69
512.065	14548.69
512.167	14548.69
512.268	14548.69
512.37	14548.69
512.472	14548.69
512.574	14548.69
512.676	14548.69
512.777	14548.69
512.879	14548.69
512.981	14548.69
513.082	14548.69
513.184	14548.69
513.286	14548.69
513.387	14548.69
513.489	14548.69
513.591	14548.69
513.692	14548.69
513.794	14548.69
513.896	14548.69
513.997	14548.69
514.099	14548.69
514.2	14548.69
514.302	14548.69
514.404	14548.69
514.505	14548.69
514.607	14548.69
514.708	14548.69
514.81	14548.69
514.911	14548.69
515.013	14548.69
515.114	14548.69
515.216	14548.69
515.317	14548.69
515.419	14548.69
515.52	14548.69
515.622	14548.69
515.723	14548.69
515.825	14548.69
515.926	14548.69
516.027	14548.69
516.129	14548.69
516.23	14548.69
516.332	14548.69
516.433	14548.69
516.534	14548.69
516.636	14548.69
516.737	14548.69
516.838	14548.69
516.94	14548.69
517.041	14548.69
517.142	14548.69
517.244	14548.69
517.345	14548.69
517.446	14548.69
517.547	14548.69
517.649	14548.69
517.75	14548.69
517.851	14548.69
517.952	14548.69
518.054	14548.69
518.155	14548.69
518.256	14548.69
518.357	14548.69
518.458	14548.69
518.56	14548.69
518.661	14548.69
518.762	14548.69
518.863	14548.69
518.964	14548.69
519.065	14548.69
519.166	14548.69
519.268	14548.69
519.369	14548.69
519.47	14548.69
519.571	14548.69
519.672	14548.69
519.773	14548.69
519.874	14548.69
519.975	14548.69
520.076	14548.69
520.177	14548.69
520.278	14548.69
520.379	14548.69
520.48	14548.69
520.581	14548.69
520.682	14548.69
520.783	14548.69
520.884	14548.69
520.985	14548.69
521.086	14548.69
521.187	14548.69
521.288	14548.69
521.389	14548.69
521.489	14548.69
521.59	14548.69
521.691	14548.69
521.792	14548.69
521.893	14548.69
521.994	14548.69
522.095	14548.69
522.195	14548.69
522.296	14548.69
522.397	14548.69
522.498	14548.69
522.599	14548.69
522.699	14548.69
522.8	14548.69
522.901	14548.69
523.002	14548.69
523.102	14548.69
523.203	14548.69
523.304	14548.69
523.405	14548.69
523.505	14548.69
523.606	14548.69
523.707	14548.69
523.807	14548.69
523.908	14548.69
524.009	14548.69
524.109	14548.69
524.21	14548.69
524.31	14548.69
524.411	14548.69
524.512	14548.69
524.612	14548.69
524.713	14548.69
524.813	14548.69
524.914	14548.69
525.014	14548.69
525.115	14548.69
525.216	14548.69
525.316	14548.69
525.417	14548.69
525.517	14548.69
525.618	14548.69
525.718	14548.69
525.819	14548.69
525.919	14548.69
526.019	14548.69
526.12	14548.69
526.22	14548.69
526.321	14548.69
526.421	14548.69
526.522	14548.69
526.622	14548.69
526.722	14548.69
526.823	14548.69
526.923	14548.69
527.023	14548.69
527.124	14548.69
527.224	14548.69
527.324	14548.69
527.425	14548.69
527.525	14548.69
527.625	14548.69
527.726	14548.69
527.826	14548.69
527.926	14548.69
528.026	14548.69
528.127	14548.69
528.227	14548.69
528.327	14548.69
528.427	14548.69
528.528	14548.69
528.628	14548.69
528.728	14548.69
528.828	14548.69
528.928	14548.69
529.029	14548.69
529.129	14548.69
529.229	14548.69
529.329	14548.69
529.429	14548.69
529.529	14548.69
529.629	14548.69
529.729	14548.69
529.829	14548.69
529.93	14548.69
530.03	14548.69
530.13	14548.69
530.23	14548.69
530.33	14548.69
530.43	14548.69
530.53	14548.69
530.63	14548.69
530.73	14548.69
530.83	14548.69
530.93	14548.69
531.03	14548.69
531.13	14548.69
531.23	14548.69
