Data from 14g_HRC06701__24__207.txt Node

Date: Thu Apr 18 01:58:18 CDT 2024
User: Estudiantes 2
Spectrometer: HR+C0670
Trigger mode: 4
Integration Time (sec): 1.000000E0
Scans to average: 1
Electric dark correction enabled: true
Nonlinearity correction enabled: false
Boxcar width: 0
XAxis mode: Wavelengths
Number of Pixels in Spectrum: 2048
>>>>>Begin Spectral Data<<<<<
407.81	-162.56
407.921	-162.56
408.032	-162.56
408.143	-89.56
408.254	-93.56
408.365	13.44
408.476	211.44
408.587	4.44
408.699	-13.56
408.81	-22.56
408.921	12.44
409.032	-78.56
409.143	14.44
409.254	59.44
409.365	62.44
409.476	-34.56
409.587	29.44
409.698	87.44
409.809	85.44
409.92	-39.56
410.031	-3.56
410.142	30.44
410.253	-1.56
410.364	64.44
410.475	2219.44
410.585	10694.44
410.696	11440.44
410.807	11044.44
410.918	11197.44
411.029	11400.44
411.14	11326.44
411.251	11333.44
411.362	11341.44
411.472	11595.44
411.583	11278.44
411.694	11689.44
411.805	11631.44
411.916	11817.44
412.026	11837.44
412.137	11724.44
412.248	11585.44
412.359	11718.44
412.47	11372.44
412.58	11248.44
412.691	11552.44
412.802	11248.44
412.912	11310.44
413.023	11233.44
413.134	11306.44
413.245	11255.44
413.355	11320.44
413.466	11265.44
413.577	11162.44
413.687	11348.44
413.798	10964.44
413.909	11452.44
414.019	11439.44
414.13	11492.44
414.24	11484.44
414.351	11550.44
414.462	11775.44
414.572	11549.44
414.683	11440.44
414.793	11398.44
414.904	11645.44
415.014	11493.44
415.125	11396.44
415.235	11511.44
415.346	11677.44
415.456	11651.44
415.567	11335.44
415.677	11341.44
415.788	11399.44
415.898	11283.44
416.009	11251.44
416.119	11537.44
416.23	11203.44
416.34	11176.44
416.45	11405.44
416.561	12236.44
416.671	11525.44
416.782	11372.44
416.892	11651.44
417.002	11542.44
417.113	11863.44
417.223	11670.44
417.333	11544.44
417.444	11782.44
417.554	12053.44
417.664	12064.44
417.775	11679.44
417.885	12148.44
417.995	12080.44
418.106	12542.44
418.216	12345.44
418.326	12640.44
418.436	12832.44
418.547	12881.44
418.657	12879.44
418.767	13119.44
418.877	13021.44
418.987	13199.44
419.098	13238.44
419.208	13310.44
419.318	13291.44
419.428	13211.44
419.538	12961.44
419.648	13165.44
419.759	13069.44
419.869	13060.44
419.979	13013.44
420.089	13208.44
420.199	13134.44
420.309	13247.44
420.419	13149.44
420.529	13207.44
420.639	13757.44
420.749	13376.44
420.859	13433.44
420.969	13577.44
421.079	13759.44
421.189	13431.44
421.299	13333.44
421.409	13365.44
421.519	13682.44
421.629	13938.44
421.739	13801.44
421.849	14003.44
421.959	13958.44
422.069	13999.44
422.179	14290.44
422.289	14326.44
422.399	14547.44
422.509	14547.44
422.619	14547.44
422.729	14547.44
422.838	14547.44
422.948	14547.44
423.058	14547.44
423.168	14547.44
423.278	14547.44
423.388	14547.44
423.498	14547.44
423.607	14547.44
423.717	14547.44
423.827	14547.44
423.937	14547.44
424.046	14547.44
424.156	14547.44
424.266	14547.44
424.376	14547.44
424.485	14547.44
424.595	14547.44
424.705	14547.44
424.815	14547.44
424.924	14547.44
425.034	14547.44
425.144	14547.44
425.253	14547.44
425.363	14547.44
425.473	14547.44
425.582	14547.44
425.692	14547.44
425.801	14547.44
425.911	14547.44
426.021	14547.44
426.13	14547.44
426.24	14547.44
426.349	14547.44
426.459	14547.44
426.568	14547.44
426.678	14547.44
426.787	14547.44
426.897	14547.44
427.006	14547.44
427.116	14547.44
427.225	14547.44
427.335	14547.44
427.444	14547.44
427.554	14547.44
427.663	14547.44
427.773	14547.44
427.882	14547.44
427.992	14547.44
428.101	14547.44
428.21	14547.44
428.32	14547.44
428.429	14547.44
428.539	14547.44
428.648	14547.44
428.757	14547.44
428.867	14547.44
428.976	14547.44
429.085	14547.44
429.195	14547.44
429.304	14547.44
429.413	14547.44
429.523	14547.44
429.632	14547.44
429.741	14547.44
429.85	14547.44
429.96	14547.44
430.069	14547.44
430.178	14547.44
430.287	14547.44
430.397	14547.44
430.506	14547.44
430.615	14547.44
430.724	14547.44
430.833	14547.44
430.943	14547.44
431.052	14547.44
431.161	14547.44
431.27	14547.44
431.379	14547.44
431.488	14547.44
431.597	14547.44
431.706	14547.44
431.816	14547.44
431.925	14547.44
432.034	14547.44
432.143	14547.44
432.252	14547.44
432.361	14547.44
432.47	14547.44
432.579	14547.44
432.688	14547.44
432.797	14547.44
432.906	14547.44
433.015	14547.44
433.124	14547.44
433.233	14547.44
433.342	14547.44
433.451	14547.44
433.56	14547.44
433.669	14547.44
433.778	14547.44
433.886	14547.44
433.995	14547.44
434.104	14547.44
434.213	14547.44
434.322	14547.44
434.431	14547.44
434.54	14547.44
434.649	14547.44
434.757	14547.44
434.866	14547.44
434.975	14547.44
435.084	14547.44
435.193	14547.44
435.301	14547.44
435.41	14547.44
435.519	14547.44
435.628	14547.44
435.737	14547.44
435.845	14547.44
435.954	14547.44
436.063	14547.44
436.171	14547.44
436.28	14547.44
436.389	14547.44
436.498	14547.44
436.606	14547.44
436.715	14547.44
436.823	14547.44
436.932	14547.44
437.041	14547.44
437.149	14547.44
437.258	14547.44
437.367	14547.44
437.475	14547.44
437.584	14547.44
437.692	14547.44
437.801	14547.44
437.91	14547.44
438.018	14547.44
438.127	14547.44
438.235	14547.44
438.344	14547.44
438.452	14547.44
438.561	14547.44
438.669	14547.44
438.778	14547.44
438.886	14547.44
438.995	14547.44
439.103	14547.44
439.212	14547.44
439.32	14547.44
439.428	14547.44
439.537	14547.44
439.645	14547.44
439.754	14547.44
439.862	14547.44
439.97	14547.44
440.079	14547.44
440.187	14547.44
440.295	14547.44
440.404	14547.44
440.512	14547.44
440.62	14547.44
440.729	14547.44
440.837	14547.44
440.945	14547.44
441.054	14547.44
441.162	14547.44
441.27	14547.44
441.378	14547.44
441.487	14547.44
441.595	14547.44
441.703	14547.44
441.811	14547.44
441.92	14547.44
442.028	14547.44
442.136	14547.44
442.244	14547.44
442.352	14547.44
442.461	14547.44
442.569	14547.44
442.677	14547.44
442.785	14547.44
442.893	14547.44
443.001	14547.44
443.109	14547.44
443.217	14547.44
443.325	14547.44
443.434	14547.44
443.542	14547.44
443.65	14547.44
443.758	14547.44
443.866	14547.44
443.974	14547.44
444.082	14547.44
444.19	14547.44
444.298	14547.44
444.406	14547.44
444.514	14547.44
444.622	14547.44
444.73	14547.44
444.838	14547.44
444.946	14547.44
445.054	14547.44
445.161	14547.44
445.269	14547.44
445.377	14547.44
445.485	14547.44
445.593	14547.44
445.701	14547.44
445.809	14547.44
445.917	14547.44
446.025	14547.44
446.132	14547.44
446.24	14547.44
446.348	14547.44
446.456	14547.44
446.564	14547.44
446.671	14547.44
446.779	14547.44
446.887	14547.44
446.995	14547.44
447.102	14547.44
447.21	14547.44
447.318	14547.44
447.426	14547.44
447.533	14547.44
447.641	14547.44
447.749	14547.44
447.856	14547.44
447.964	14547.44
448.072	14547.44
448.179	14547.44
448.287	14547.44
448.395	14547.44
448.502	14547.44
448.61	14547.44
448.718	14547.44
448.825	14547.44
448.933	14547.44
449.04	14547.44
449.148	14547.44
449.256	14547.44
449.363	14547.44
449.471	14547.44
449.578	14547.44
449.686	14547.44
449.793	14547.44
449.901	14547.44
450.008	14547.44
450.116	14547.44
450.223	14547.44
450.331	14547.44
450.438	14547.44
450.546	14547.44
450.653	14547.44
450.76	14547.44
450.868	14547.44
450.975	14547.44
451.083	14547.44
451.19	14547.44
451.297	14547.44
451.405	14547.44
451.512	14547.44
451.619	14547.44
451.727	14547.44
451.834	14547.44
451.941	14547.44
452.049	14547.44
452.156	14547.44
452.263	14547.44
452.371	14547.44
452.478	14547.44
452.585	14547.44
452.692	14547.44
452.8	14547.44
452.907	14547.44
453.014	14547.44
453.121	14547.44
453.229	14547.44
453.336	14547.44
453.443	14547.44
453.55	14547.44
453.657	14547.44
453.765	14547.44
453.872	14547.44
453.979	14547.44
454.086	14547.44
454.193	14547.44
454.3	14547.44
454.407	14547.44
454.514	14547.44
454.621	14547.44
454.729	14547.44
454.836	14547.44
454.943	14547.44
455.05	14547.44
455.157	14547.44
455.264	14547.44
455.371	14547.44
455.478	14547.44
455.585	14547.44
455.692	14547.44
455.799	14547.44
455.906	14547.44
456.013	14547.44
456.12	14547.44
456.227	14547.44
456.334	14547.44
456.44	14547.44
456.547	14547.44
456.654	14547.44
456.761	14547.44
456.868	14547.44
456.975	14547.44
457.082	14547.44
457.189	14547.44
457.296	14547.44
457.402	14547.44
457.509	14547.44
457.616	14547.44
457.723	14547.44
457.83	14547.44
457.936	14547.44
458.043	14547.44
458.15	14547.44
458.257	14547.44
458.363	14547.44
458.47	14547.44
458.577	14547.44
458.684	14547.44
458.79	14547.44
458.897	14547.44
459.004	14547.44
459.11	14547.44
459.217	14547.44
459.324	14547.44
459.43	14547.44
459.537	14547.44
459.644	14547.44
459.75	14547.44
459.857	14547.44
459.964	14547.44
460.07	14547.44
460.177	14547.44
460.283	14547.44
460.39	14547.44
460.496	14547.44
460.603	14547.44
460.71	14547.44
460.816	14547.44
460.923	14547.44
461.029	14547.44
461.136	14547.44
461.242	14547.44
461.349	14547.44
461.455	14547.44
461.562	14547.44
461.668	14547.44
461.774	14547.44
461.881	14547.44
461.987	14547.44
462.094	14547.44
462.2	14547.44
462.307	14547.44
462.413	14547.44
462.519	14547.44
462.626	14547.44
462.732	14547.44
462.838	14547.44
462.945	14547.44
463.051	14547.44
463.157	14547.44
463.264	14547.44
463.37	14547.44
463.476	14547.44
463.583	14547.44
463.689	14547.44
463.795	14547.44
463.901	14547.44
464.008	14547.44
464.114	14547.44
464.22	14547.44
464.326	14547.44
464.433	14547.44
464.539	14547.44
464.645	14547.44
464.751	14547.44
464.857	14547.44
464.963	14547.44
465.07	14547.44
465.176	14547.44
465.282	14547.44
465.388	14547.44
465.494	14547.44
465.6	14547.44
465.706	14547.44
465.812	14547.44
465.918	14547.44
466.024	14547.44
466.131	14547.44
466.237	14547.44
466.343	14547.44
466.449	14547.44
466.555	14547.44
466.661	14547.44
466.767	14547.44
466.873	14547.44
466.979	14547.44
467.085	14547.44
467.191	14547.44
467.296	14547.44
467.402	14547.44
467.508	14547.44
467.614	14547.44
467.72	14547.44
467.826	14547.44
467.932	14547.44
468.038	14547.44
468.144	14547.44
468.25	14547.44
468.355	14547.44
468.461	14547.44
468.567	14547.44
468.673	14547.44
468.779	14547.44
468.885	14547.44
468.99	14547.44
469.096	14547.44
469.202	14547.44
469.308	14547.44
469.413	14547.44
469.519	14547.44
469.625	14547.44
469.731	14547.44
469.836	14547.44
469.942	14547.44
470.048	14547.44
470.153	14547.44
470.259	14547.44
470.365	14547.44
470.47	14547.44
470.576	14547.44
470.682	14547.44
470.787	14547.44
470.893	14547.44
470.999	14547.44
471.104	14547.44
471.21	14547.44
471.315	14547.44
471.421	14547.44
471.527	14547.44
471.632	14547.44
471.738	14547.44
471.843	14547.44
471.949	14547.44
472.054	14547.44
472.16	14547.44
472.265	14547.44
472.371	14547.44
472.476	14547.44
472.582	14547.44
472.687	14547.44
472.793	14547.44
472.898	14547.44
473.003	14547.44
473.109	14547.44
473.214	14547.44
473.32	14547.44
473.425	14547.44
473.53	14547.44
473.636	14547.44
473.741	14547.44
473.847	14547.44
473.952	14547.44
474.057	14547.44
474.163	14547.44
474.268	14547.44
474.373	14547.44
474.478	14547.44
474.584	14547.44
474.689	14547.44
474.794	14547.44
474.9	14547.44
475.005	14547.44
475.11	14547.44
475.215	14547.44
475.321	14547.44
475.426	14547.44
475.531	14547.44
475.636	14547.44
475.741	14547.44
475.846	14547.44
475.952	14547.44
476.057	14547.44
476.162	14547.44
476.267	14547.44
476.372	14547.44
476.477	14547.44
476.582	14547.44
476.687	14547.44
476.793	14547.44
476.898	14547.44
477.003	14547.44
477.108	14547.44
477.213	14547.44
477.318	14547.44
477.423	14547.44
477.528	14547.44
477.633	14547.44
477.738	14547.44
477.843	14547.44
477.948	14547.44
478.053	14547.44
478.158	14547.44
478.263	14547.44
478.368	14547.44
478.473	14547.44
478.578	14547.44
478.682	14547.44
478.787	14547.44
478.892	14547.44
478.997	14547.44
479.102	14547.44
479.207	14547.44
479.312	14547.44
479.417	14547.44
479.521	14547.44
479.626	14547.44
479.731	14547.44
479.836	14547.44
479.941	14547.44
480.045	14547.44
480.15	14547.44
480.255	14547.44
480.36	14547.44
480.465	14547.44
480.569	14547.44
480.674	14547.44
480.779	14547.44
480.883	14547.44
480.988	14547.44
481.093	14547.44
481.197	14547.44
481.302	14547.44
481.407	14547.44
481.511	14547.44
481.616	14547.44
481.721	14547.44
481.825	14547.44
481.93	14547.44
482.035	14547.44
482.139	14547.44
482.244	14547.44
482.348	14547.44
482.453	14547.44
482.557	14547.44
482.662	14547.44
482.767	14547.44
482.871	14547.44
482.976	14547.44
483.08	14547.44
483.185	14547.44
483.289	14547.44
483.394	14547.44
483.498	14547.44
483.603	14547.44
483.707	14547.44
483.811	14547.44
483.916	14547.44
484.02	14547.44
484.125	14547.44
484.229	14547.44
484.333	14547.44
484.438	14547.44
484.542	14547.44
484.647	14547.44
484.751	14547.44
484.855	14547.44
484.96	14547.44
485.064	14547.44
485.168	14547.44
485.273	14547.44
485.377	14547.44
485.481	14547.44
485.585	14547.44
485.69	14547.44
485.794	14547.44
485.898	14547.44
486.002	14547.44
486.107	14547.44
486.211	14547.44
486.315	14547.44
486.419	14547.44
486.524	14547.44
486.628	14547.44
486.732	14547.44
486.836	14547.44
486.94	14547.44
487.044	14547.44
487.148	14547.44
487.253	14547.44
487.357	14547.44
487.461	14547.44
487.565	14547.44
487.669	14547.44
487.773	14547.44
487.877	14547.44
487.981	14547.44
488.085	14547.44
488.189	14547.44
488.293	14547.44
488.397	14547.44
488.501	14547.44
488.605	14547.44
488.709	14547.44
488.813	14547.44
488.917	14547.44
489.021	14547.44
489.125	14547.44
489.229	14547.44
489.333	14547.44
489.437	14547.44
489.541	14547.44
489.645	14547.44
489.749	14547.44
489.853	14547.44
489.956	14547.44
490.06	14547.44
490.164	14547.44
490.268	14547.44
490.372	14547.44
490.476	14547.44
490.579	14547.44
490.683	14547.44
490.787	14547.44
490.891	14547.44
490.995	14547.44
491.098	14547.44
491.202	14547.44
491.306	14547.44
491.41	14547.44
491.513	14547.44
491.617	14547.44
491.721	14547.44
491.824	14547.44
491.928	14547.44
492.032	14547.44
492.136	14547.44
492.239	14547.44
492.343	14547.44
492.446	14547.44
492.55	14547.44
492.654	14547.44
492.757	14547.44
492.861	14547.44
492.965	14547.44
493.068	14547.44
493.172	14547.44
493.275	14547.44
493.379	14547.44
493.482	14547.44
493.586	14547.44
493.689	14547.44
493.793	14547.44
493.896	14547.44
494	14547.44
494.103	14547.44
494.207	14547.44
494.31	14547.44
494.414	14547.44
494.517	14547.44
494.621	14547.44
494.724	14547.44
494.828	14547.44
494.931	14547.44
495.034	14547.44
495.138	14547.44
495.241	14547.44
495.345	14547.44
495.448	14547.44
495.551	14547.44
495.655	14547.44
495.758	14547.44
495.861	14547.44
495.965	14547.44
496.068	14547.44
496.171	14547.44
496.274	14547.44
496.378	14547.44
496.481	14547.44
496.584	14547.44
496.687	14547.44
496.791	14547.44
496.894	14547.44
496.997	14547.44
497.1	14547.44
497.204	14547.44
497.307	14547.44
497.41	14547.44
497.513	14547.44
497.616	14547.44
497.719	14547.44
497.823	14547.44
497.926	14547.44
498.029	14547.44
498.132	14547.44
498.235	14547.44
498.338	14547.44
498.441	14547.44
498.544	14547.44
498.647	14547.44
498.75	14547.44
498.853	14547.44
498.956	14547.44
499.059	14547.44
499.163	14547.44
499.266	14547.44
499.369	14547.44
499.471	14547.44
499.574	14547.44
499.677	14547.44
499.78	14547.44
499.883	14547.44
499.986	14547.44
500.089	14547.44
500.192	14547.44
500.295	14547.44
500.398	14547.44
500.501	14547.44
500.604	14547.44
500.707	14547.44
500.809	14547.44
500.912	14547.44
501.015	14547.44
501.118	14547.44
501.221	14547.44
501.324	14547.44
501.426	14547.44
501.529	14547.44
501.632	14547.44
501.735	14547.44
501.837	14547.44
501.94	14547.44
502.043	14547.44
502.146	14547.44
502.248	14547.44
502.351	14547.44
502.454	14547.44
502.557	14547.44
502.659	14547.44
502.762	14547.44
502.865	14547.44
502.967	14547.44
503.07	14547.44
503.173	14547.44
503.275	14547.44
503.378	14547.44
503.48	14547.44
503.583	14547.44
503.686	14547.44
503.788	14547.44
503.891	14547.44
503.993	14547.44
504.096	14547.44
504.198	14547.44
504.301	14547.44
504.403	14547.44
504.506	14547.44
504.608	14547.44
504.711	14547.44
504.813	14547.44
504.916	14547.44
505.018	14547.44
505.121	14547.44
505.223	14547.44
505.326	14547.44
505.428	14547.44
505.531	14547.44
505.633	14547.44
505.735	14547.44
505.838	14547.44
505.94	14547.44
506.042	14547.44
506.145	14547.44
506.247	14547.44
506.35	14547.44
506.452	14547.44
506.554	14547.44
506.656	14547.44
506.759	14547.44
506.861	14547.44
506.963	14547.44
507.066	14547.44
507.168	14547.44
507.27	14547.44
507.372	14547.44
507.475	14547.44
507.577	14547.44
507.679	14547.44
507.781	14547.44
507.883	14547.44
507.986	14547.44
508.088	14547.44
508.19	14547.44
508.292	14547.44
508.394	14547.44
508.496	14547.44
508.598	14547.44
508.701	14547.44
508.803	14547.44
508.905	14547.44
509.007	14547.44
509.109	14547.44
509.211	14547.44
509.313	14547.44
509.415	14547.44
509.517	14547.44
509.619	14547.44
509.721	14547.44
509.823	14547.44
509.925	14547.44
510.027	14547.44
510.129	14547.44
510.231	14547.44
510.333	14547.44
510.435	14547.44
510.537	14547.44
510.639	14547.44
510.741	14547.44
510.843	14547.44
510.945	14547.44
511.047	14547.44
511.148	14547.44
511.25	14547.44
511.352	14547.44
511.454	14547.44
511.556	14547.44
511.658	14547.44
511.76	14547.44
511.861	14547.44
511.963	14547.44
512.065	14547.44
512.167	14547.44
512.268	14547.44
512.37	14547.44
512.472	14547.44
512.574	14547.44
512.676	14547.44
512.777	14547.44
512.879	14547.44
512.981	14547.44
513.082	14547.44
513.184	14547.44
513.286	14547.44
513.387	14547.44
513.489	14547.44
513.591	14547.44
513.692	14547.44
513.794	14547.44
513.896	14547.44
513.997	14547.44
514.099	14547.44
514.2	14547.44
514.302	14547.44
514.404	14547.44
514.505	14547.44
514.607	14547.44
514.708	14547.44
514.81	14547.44
514.911	14547.44
515.013	14547.44
515.114	14547.44
515.216	14547.44
515.317	14547.44
515.419	14547.44
515.52	14547.44
515.622	14547.44
515.723	14547.44
515.825	14547.44
515.926	14547.44
516.027	14547.44
516.129	14547.44
516.23	14547.44
516.332	14547.44
516.433	14547.44
516.534	14547.44
516.636	14547.44
516.737	14547.44
516.838	14547.44
516.94	14547.44
517.041	14547.44
517.142	14547.44
517.244	14547.44
517.345	14547.44
517.446	14547.44
517.547	14547.44
517.649	14547.44
517.75	14547.44
517.851	14547.44
517.952	14547.44
518.054	14547.44
518.155	14547.44
518.256	14547.44
518.357	14547.44
518.458	14547.44
518.56	14547.44
518.661	14547.44
518.762	14547.44
518.863	14547.44
518.964	14547.44
519.065	14547.44
519.166	14547.44
519.268	14547.44
519.369	14547.44
519.47	14547.44
519.571	14547.44
519.672	14547.44
519.773	14547.44
519.874	14547.44
519.975	14547.44
520.076	14547.44
520.177	14547.44
520.278	14547.44
520.379	14547.44
520.48	14547.44
520.581	14547.44
520.682	14547.44
520.783	14547.44
520.884	14547.44
520.985	14547.44
521.086	14547.44
521.187	14547.44
521.288	14547.44
521.389	14547.44
521.489	14547.44
521.59	14547.44
521.691	14547.44
521.792	14547.44
521.893	14547.44
521.994	14547.44
522.095	14547.44
522.195	14547.44
522.296	14547.44
522.397	14547.44
522.498	14547.44
522.599	14547.44
522.699	14547.44
522.8	14547.44
522.901	14547.44
523.002	14547.44
523.102	14547.44
523.203	14547.44
523.304	14547.44
523.405	14547.44
523.505	14547.44
523.606	14547.44
523.707	14547.44
523.807	14547.44
523.908	14547.44
524.009	14547.44
524.109	14547.44
524.21	14547.44
524.31	14547.44
524.411	14547.44
524.512	14547.44
524.612	14547.44
524.713	14547.44
524.813	14547.44
524.914	14547.44
525.014	14547.44
525.115	14547.44
525.216	14547.44
525.316	14547.44
525.417	14547.44
525.517	14547.44
525.618	14547.44
525.718	14547.44
525.819	14547.44
525.919	14547.44
526.019	14547.44
526.12	14547.44
526.22	14547.44
526.321	14547.44
526.421	14547.44
526.522	14547.44
526.622	14547.44
526.722	14547.44
526.823	14547.44
526.923	14547.44
527.023	14547.44
527.124	14547.44
527.224	14547.44
527.324	14547.44
527.425	14547.44
527.525	14547.44
527.625	14547.44
527.726	14547.44
527.826	14547.44
527.926	14547.44
528.026	14547.44
528.127	14547.44
528.227	14547.44
528.327	14547.44
528.427	14547.44
528.528	14547.44
528.628	14547.44
528.728	14547.44
528.828	14547.44
528.928	14547.44
529.029	14547.44
529.129	14547.44
529.229	14547.44
529.329	14547.44
529.429	14547.44
529.529	14547.44
529.629	14547.44
529.729	14547.44
529.829	14547.44
529.93	14547.44
530.03	14547.44
530.13	14547.44
530.23	14547.44
530.33	14547.44
530.43	14547.44
530.53	14547.44
530.63	14547.44
530.73	14547.44
