Data from 28g_HRC06701__40__406.txt Node

Date: Thu Apr 18 02:21:11 CDT 2024
User: Estudiantes 2
Spectrometer: HR+C0670
Trigger mode: 4
Integration Time (sec): 1.000000E0
Scans to average: 1
Electric dark correction enabled: true
Nonlinearity correction enabled: false
Boxcar width: 0
XAxis mode: Wavelengths
Number of Pixels in Spectrum: 2048
>>>>>Begin Spectral Data<<<<<
407.81	-155.75
407.921	-155.75
408.032	-155.75
408.143	-126.75
408.254	-122.75
408.365	0.25
408.476	240.25
408.587	0.25
408.699	-9.75
408.81	-27.75
408.921	-27.75
409.032	-26.75
409.143	45.25
409.254	28.25
409.365	115.25
409.476	-11.75
409.587	-16.75
409.698	96.25
409.809	78.25
409.92	-51.75
410.031	-5.75
410.142	55.25
410.253	-2.75
410.364	45.25
410.475	-41.75
410.585	102.25
410.696	117.25
410.807	145.25
410.918	128.25
411.029	135.25
411.14	165.25
411.251	89.25
411.362	196.25
411.472	229.25
411.583	160.25
411.694	174.25
411.805	100.25
411.916	166.25
412.026	194.25
412.137	156.25
412.248	184.25
412.359	99.25
412.47	85.25
412.58	123.25
412.691	134.25
412.802	167.25
412.912	175.25
413.023	161.25
413.134	120.25
413.245	243.25
413.355	156.25
413.466	99.25
413.577	122.25
413.687	238.25
413.798	52.25
413.909	186.25
414.019	167.25
414.13	137.25
414.24	130.25
414.351	191.25
414.462	277.25
414.572	169.25
414.683	185.25
414.793	136.25
414.904	454.25
415.014	152.25
415.125	152.25
415.235	157.25
415.346	257.25
415.456	280.25
415.567	134.25
415.677	172.25
415.788	246.25
415.898	141.25
416.009	100.25
416.119	194.25
416.23	160.25
416.34	75.25
416.45	153.25
416.561	1070.25
416.671	271.25
416.782	72.25
416.892	163.25
417.002	167.25
417.113	211.25
417.223	176.25
417.333	141.25
417.444	78.25
417.554	182.25
417.664	176.25
417.775	59.25
417.885	156.25
417.995	211.25
418.106	253.25
418.216	191.25
418.326	247.25
418.436	119.25
418.547	131.25
418.657	115.25
418.767	230.25
418.877	118.25
418.987	151.25
419.098	180.25
419.208	128.25
419.318	229.25
419.428	225.25
419.538	128.25
419.648	178.25
419.759	221.25
419.869	200.25
419.979	177.25
420.089	218.25
420.199	152.25
420.309	157.25
420.419	245.25
420.529	215.25
420.639	705.25
420.749	261.25
420.859	269.25
420.969	151.25
421.079	408.25
421.189	312.25
421.299	222.25
421.409	183.25
421.519	329.25
421.629	241.25
421.739	156.25
421.849	103.25
421.959	153.25
422.069	203.25
422.179	129.25
422.289	162.25
422.399	149.25
422.509	227.25
422.619	3790.25
422.729	529.25
422.838	117.25
422.948	261.25
423.058	174.25
423.168	130.25
423.278	155.25
423.388	230.25
423.498	257.25
423.607	226.25
423.717	559.25
423.827	489.25
423.937	222.25
424.046	335.25
424.156	249.25
424.266	173.25
424.376	452.25
424.485	388.25
424.595	225.25
424.705	204.25
424.815	203.25
424.924	585.25
425.034	304.25
425.144	212.25
425.253	224.25
425.363	253.25
425.473	300.25
425.582	188.25
425.692	180.25
425.801	192.25
425.911	357.25
426.021	238.25
426.13	308.25
426.24	444.25
426.349	320.25
426.459	250.25
426.568	218.25
426.678	357.25
426.787	237.25
426.897	195.25
427.006	214.25
427.116	276.25
427.225	243.25
427.335	320.25
427.444	175.25
427.554	308.25
427.663	266.25
427.773	183.25
427.882	292.25
427.992	221.25
428.101	191.25
428.21	240.25
428.32	291.25
428.429	159.25
428.539	472.25
428.648	243.25
428.757	308.25
428.867	245.25
428.976	359.25
429.085	298.25
429.195	181.25
429.304	256.25
429.413	338.25
429.523	282.25
429.632	326.25
429.741	349.25
429.85	229.25
429.96	266.25
430.069	258.25
430.178	247.25
430.287	477.25
430.397	272.25
430.506	280.25
430.615	208.25
430.724	264.25
430.833	329.25
430.943	288.25
431.052	301.25
431.161	281.25
431.27	270.25
431.379	217.25
431.488	412.25
431.597	353.25
431.706	309.25
431.816	215.25
431.925	293.25
432.034	244.25
432.143	356.25
432.252	334.25
432.361	365.25
432.47	335.25
432.579	308.25
432.688	252.25
432.797	264.25
432.906	286.25
433.015	332.25
433.124	697.25
433.233	350.25
433.342	439.25
433.451	290.25
433.56	259.25
433.669	309.25
433.778	269.25
433.886	329.25
433.995	354.25
434.104	447.25
434.213	344.25
434.322	314.25
434.431	397.25
434.54	317.25
434.649	454.25
434.757	384.25
434.866	314.25
434.975	413.25
435.084	433.25
435.193	402.25
435.301	558.25
435.41	766.25
435.519	800.25
435.628	333.25
435.737	310.25
435.845	266.25
435.954	249.25
436.063	285.25
436.171	324.25
436.28	309.25
436.389	442.25
436.498	361.25
436.606	333.25
436.715	487.25
436.823	327.25
436.932	261.25
437.041	262.25
437.149	380.25
437.258	272.25
437.367	258.25
437.475	258.25
437.584	552.25
437.692	309.25
437.801	1843.25
437.91	534.25
438.018	257.25
438.127	206.25
438.235	349.25
438.344	241.25
438.452	319.25
438.561	263.25
438.669	288.25
438.778	276.25
438.886	237.25
438.995	270.25
439.103	237.25
439.212	235.25
439.32	319.25
439.428	244.25
439.537	240.25
439.645	397.25
439.754	317.25
439.862	265.25
439.97	337.25
440.079	297.25
440.187	175.25
440.295	399.25
440.404	354.25
440.512	271.25
440.62	301.25
440.729	344.25
440.837	347.25
440.945	930.25
441.054	425.25
441.162	267.25
441.27	310.25
441.378	320.25
441.487	306.25
441.595	641.25
441.703	447.25
441.811	384.25
441.92	305.25
442.028	257.25
442.136	342.25
442.244	342.25
442.352	301.25
442.461	261.25
442.569	251.25
442.677	286.25
442.785	357.25
442.893	305.25
443.001	246.25
443.109	218.25
443.217	290.25
443.325	210.25
443.434	799.25
443.542	586.25
443.65	278.25
443.758	442.25
443.866	362.25
443.974	576.25
444.082	368.25
444.19	371.25
444.298	391.25
444.406	370.25
444.514	356.25
444.622	456.25
444.73	396.25
444.838	375.25
444.946	423.25
445.054	330.25
445.161	277.25
445.269	340.25
445.377	313.25
445.485	336.25
445.593	337.25
445.701	524.25
445.809	357.25
445.917	335.25
446.025	309.25
446.132	406.25
446.24	381.25
446.348	334.25
446.456	227.25
446.564	256.25
446.671	361.25
446.779	259.25
446.887	257.25
446.995	324.25
447.102	323.25
447.21	359.25
447.318	339.25
447.426	327.25
447.533	500.25
447.641	1511.25
447.749	492.25
447.856	275.25
447.964	305.25
448.072	426.25
448.179	268.25
448.287	336.25
448.395	402.25
448.502	303.25
448.61	320.25
448.718	306.25
448.825	411.25
448.933	305.25
449.04	229.25
449.148	432.25
449.256	340.25
449.363	326.25
449.471	375.25
449.578	365.25
449.686	282.25
449.793	434.25
449.901	319.25
450.008	293.25
450.116	353.25
450.223	373.25
450.331	355.25
450.438	320.25
450.546	406.25
450.653	385.25
450.76	374.25
450.868	392.25
450.975	521.25
451.083	364.25
451.19	455.25
451.297	415.25
451.405	427.25
451.512	341.25
451.619	533.25
451.727	488.25
451.834	375.25
451.941	407.25
452.049	351.25
452.156	392.25
452.263	457.25
452.371	368.25
452.478	401.25
452.585	539.25
452.692	353.25
452.8	427.25
452.907	544.25
453.014	492.25
453.121	380.25
453.229	425.25
453.336	495.25
453.443	471.25
453.55	381.25
453.657	481.25
453.765	479.25
453.872	496.25
453.979	520.25
454.086	424.25
454.193	408.25
454.3	392.25
454.407	574.25
454.514	534.25
454.621	367.25
454.729	487.25
454.836	424.25
454.943	423.25
455.05	535.25
455.157	497.25
455.264	412.25
455.371	507.25
455.478	432.25
455.585	1639.25
455.692	576.25
455.799	614.25
455.906	417.25
456.013	404.25
456.12	430.25
456.227	443.25
456.334	462.25
456.44	605.25
456.547	470.25
456.654	404.25
456.761	462.25
456.868	556.25
456.975	489.25
457.082	432.25
457.189	462.25
457.296	470.25
457.402	450.25
457.509	444.25
457.616	461.25
457.723	650.25
457.83	524.25
457.936	429.25
458.043	762.25
458.15	532.25
458.257	575.25
458.363	520.25
458.47	527.25
458.577	595.25
458.684	494.25
458.79	569.25
458.897	639.25
459.004	614.25
459.11	558.25
459.217	589.25
459.324	645.25
459.43	706.25
459.537	827.25
459.644	670.25
459.75	552.25
459.857	965.25
459.964	715.25
460.07	708.25
460.177	709.25
460.283	773.25
460.39	847.25
460.496	684.25
460.603	736.25
460.71	660.25
460.816	612.25
460.923	652.25
461.029	734.25
461.136	681.25
461.242	667.25
461.349	741.25
461.455	670.25
461.562	989.25
461.668	836.25
461.774	670.25
461.881	793.25
461.987	754.25
462.094	746.25
462.2	778.25
462.307	842.25
462.413	734.25
462.519	705.25
462.626	941.25
462.732	885.25
462.838	854.25
462.945	968.25
463.051	979.25
463.157	825.25
463.264	854.25
463.37	950.25
463.476	862.25
463.583	808.25
463.689	731.25
463.795	774.25
463.901	808.25
464.008	922.25
464.114	814.25
464.22	746.25
464.326	783.25
464.433	749.25
464.539	759.25
464.645	701.25
464.751	938.25
464.857	717.25
464.963	583.25
465.07	728.25
465.176	691.25
465.282	627.25
465.388	770.25
465.494	601.25
465.6	593.25
465.706	553.25
465.812	518.25
465.918	604.25
466.024	553.25
466.131	623.25
466.237	467.25
466.343	454.25
466.449	465.25
466.555	510.25
466.661	455.25
466.767	475.25
466.873	529.25
466.979	633.25
467.085	533.25
467.191	578.25
467.296	428.25
467.402	475.25
467.508	581.25
467.614	615.25
467.72	450.25
467.826	409.25
467.932	463.25
468.038	390.25
468.144	461.25
468.25	448.25
468.355	419.25
468.461	471.25
468.567	406.25
468.673	434.25
468.779	477.25
468.885	473.25
468.99	401.25
469.096	417.25
469.202	543.25
469.308	502.25
469.413	496.25
469.519	453.25
469.625	466.25
469.731	434.25
469.836	447.25
469.942	657.25
470.048	445.25
470.153	496.25
470.259	529.25
470.365	538.25
470.47	502.25
470.576	502.25
470.682	468.25
470.787	430.25
470.893	381.25
470.999	525.25
471.104	488.25
471.21	399.25
471.315	397.25
471.421	374.25
471.527	625.25
471.632	542.25
471.738	432.25
471.843	365.25
471.949	453.25
472.054	470.25
472.16	340.25
472.265	402.25
472.371	422.25
472.476	392.25
472.582	476.25
472.687	416.25
472.793	341.25
472.898	382.25
473.003	368.25
473.109	337.25
473.214	320.25
473.32	347.25
473.425	453.25
473.53	344.25
473.636	328.25
473.741	344.25
473.847	355.25
473.952	380.25
474.057	449.25
474.163	473.25
474.268	320.25
474.373	474.25
474.478	353.25
474.584	349.25
474.689	412.25
474.794	417.25
474.9	624.25
475.005	397.25
475.11	559.25
475.215	304.25
475.321	403.25
475.426	606.25
475.531	531.25
475.636	355.25
475.741	349.25
475.846	531.25
475.952	574.25
476.057	475.25
476.162	488.25
476.267	498.25
476.372	689.25
476.477	411.25
476.582	487.25
476.687	359.25
476.793	442.25
476.898	368.25
477.003	411.25
477.108	420.25
477.213	354.25
477.318	387.25
477.423	478.25
477.528	539.25
477.633	458.25
477.738	418.25
477.843	401.25
477.948	391.25
478.053	383.25
478.158	430.25
478.263	428.25
478.368	447.25
478.473	534.25
478.578	473.25
478.682	412.25
478.787	493.25
478.892	487.25
478.997	515.25
479.102	447.25
479.207	476.25
479.312	522.25
479.417	467.25
479.521	460.25
479.626	527.25
479.731	504.25
479.836	499.25
479.941	588.25
480.045	580.25
480.15	525.25
480.255	537.25
480.36	481.25
480.465	532.25
480.569	715.25
480.674	464.25
480.779	380.25
480.883	481.25
480.988	497.25
481.093	461.25
481.197	532.25
481.302	490.25
481.407	534.25
481.511	1782.25
481.616	599.25
481.721	515.25
481.825	634.25
481.93	462.25
482.035	475.25
482.139	548.25
482.244	573.25
482.348	488.25
482.453	505.25
482.557	583.25
482.662	507.25
482.767	450.25
482.871	471.25
482.976	486.25
483.08	486.25
483.185	641.25
483.289	533.25
483.394	509.25
483.498	576.25
483.603	559.25
483.707	520.25
483.811	572.25
483.916	659.25
484.02	493.25
484.125	543.25
484.229	616.25
484.333	666.25
484.438	526.25
484.542	560.25
484.647	509.25
484.751	573.25
484.855	532.25
484.96	564.25
485.064	579.25
485.168	545.25
485.273	524.25
485.377	558.25
485.481	743.25
485.585	574.25
485.69	569.25
485.794	577.25
485.898	587.25
486.002	583.25
486.107	582.25
486.211	574.25
486.315	661.25
486.419	660.25
486.524	649.25
486.628	611.25
486.732	588.25
486.836	543.25
486.94	697.25
487.044	656.25
487.148	572.25
487.253	577.25
487.357	635.25
487.461	749.25
487.565	611.25
487.669	643.25
487.773	558.25
487.877	701.25
487.981	684.25
488.085	666.25
488.189	622.25
488.293	793.25
488.397	1125.25
488.501	670.25
488.605	625.25
488.709	621.25
488.813	592.25
488.917	601.25
489.021	687.25
489.125	870.25
489.229	653.25
489.333	789.25
489.437	663.25
489.541	634.25
489.645	591.25
489.749	641.25
489.853	686.25
489.956	597.25
490.06	707.25
490.164	630.25
490.268	616.25
490.372	696.25
490.476	638.25
490.579	612.25
490.683	1319.25
490.787	754.25
490.891	616.25
490.995	667.25
491.098	730.25
491.202	622.25
491.306	676.25
491.41	750.25
491.513	601.25
491.617	636.25
491.721	824.25
491.824	914.25
491.928	676.25
492.032	888.25
492.136	678.25
492.239	608.25
492.343	673.25
492.446	1081.25
492.55	733.25
492.654	622.25
492.757	617.25
492.861	709.25
492.965	624.25
493.068	714.25
493.172	611.25
493.275	655.25
493.379	643.25
493.482	816.25
493.586	757.25
493.689	900.25
493.793	676.25
493.896	778.25
494	736.25
494.103	820.25
494.207	953.25
494.31	1056.25
494.414	761.25
494.517	624.25
494.621	591.25
494.724	737.25
494.828	614.25
494.931	622.25
495.034	628.25
495.138	815.25
495.241	620.25
495.345	1344.25
495.448	864.25
495.551	621.25
495.655	662.25
495.758	675.25
495.861	551.25
495.965	614.25
496.068	704.25
496.171	744.25
496.274	644.25
496.378	680.25
496.481	709.25
496.584	640.25
496.687	674.25
496.791	742.25
496.894	704.25
496.997	652.25
497.1	780.25
497.204	672.25
497.307	643.25
497.41	896.25
497.513	917.25
497.616	722.25
497.719	659.25
497.823	729.25
497.926	701.25
498.029	729.25
498.132	799.25
498.235	734.25
498.338	829.25
498.441	938.25
498.544	822.25
498.647	825.25
498.75	1017.25
498.853	1116.25
498.956	999.25
499.059	1173.25
499.163	1072.25
499.266	1103.25
499.369	1142.25
499.471	1199.25
499.574	1323.25
499.677	1328.25
499.78	1411.25
499.883	1418.25
499.986	1572.25
500.089	1543.25
500.192	1625.25
500.295	1599.25
500.398	1573.25
500.501	1578.25
500.604	1442.25
500.707	1405.25
500.809	1410.25
500.912	1421.25
501.015	1296.25
501.118	1193.25
501.221	1189.25
501.324	1100.25
501.426	998.25
501.529	956.25
501.632	928.25
501.735	843.25
501.837	892.25
501.94	782.25
502.043	816.25
502.146	861.25
502.248	842.25
502.351	715.25
502.454	779.25
502.557	681.25
502.659	743.25
502.762	705.25
502.865	662.25
502.967	578.25
503.07	646.25
503.173	727.25
503.275	668.25
503.378	600.25
503.48	631.25
503.583	695.25
503.686	691.25
503.788	960.25
503.891	642.25
503.993	827.25
504.096	690.25
504.198	645.25
504.301	601.25
504.403	600.25
504.506	642.25
504.608	630.25
504.711	576.25
504.813	690.25
504.916	588.25
505.018	593.25
505.121	591.25
505.223	560.25
505.326	520.25
505.428	652.25
505.531	537.25
505.633	546.25
505.735	504.25
505.838	529.25
505.94	530.25
506.042	411.25
506.145	470.25
506.247	573.25
506.35	466.25
506.452	609.25
506.554	534.25
506.656	537.25
506.759	468.25
506.861	508.25
506.963	468.25
507.066	541.25
507.168	651.25
507.27	487.25
507.372	463.25
507.475	539.25
507.577	535.25
507.679	433.25
507.781	479.25
507.883	500.25
507.986	417.25
508.088	456.25
508.19	492.25
508.292	449.25
508.394	430.25
508.496	452.25
508.598	431.25
508.701	416.25
508.803	483.25
508.905	392.25
509.007	468.25
509.109	586.25
509.211	499.25
509.313	436.25
509.415	432.25
509.517	465.25
509.619	385.25
509.721	484.25
509.823	518.25
509.925	562.25
510.027	432.25
510.129	554.25
510.231	471.25
510.333	414.25
510.435	435.25
510.537	468.25
510.639	497.25
510.741	471.25
510.843	518.25
510.945	448.25
511.047	517.25
511.148	546.25
511.25	395.25
511.352	485.25
511.454	418.25
511.556	452.25
511.658	424.25
511.76	531.25
511.861	601.25
511.963	426.25
512.065	440.25
512.167	437.25
512.268	582.25
512.37	509.25
512.472	461.25
512.574	513.25
512.676	536.25
512.777	463.25
512.879	419.25
512.981	394.25
513.082	496.25
513.184	400.25
513.286	872.25
513.387	589.25
513.489	630.25
513.591	519.25
513.692	549.25
513.794	554.25
513.896	377.25
513.997	417.25
514.099	463.25
514.2	497.25
514.302	495.25
514.404	487.25
514.505	389.25
514.607	513.25
514.708	476.25
514.81	541.25
514.911	532.25
515.013	586.25
515.114	533.25
515.216	469.25
515.317	509.25
515.419	512.25
515.52	516.25
515.622	551.25
515.723	588.25
515.825	620.25
515.926	520.25
516.027	549.25
516.129	499.25
516.23	479.25
516.332	560.25
516.433	568.25
516.534	653.25
516.636	565.25
516.737	561.25
516.838	1536.25
516.94	771.25
517.041	652.25
517.142	738.25
517.244	782.25
517.345	739.25
517.446	687.25
517.547	676.25
517.649	642.25
517.75	738.25
517.851	640.25
517.952	924.25
518.054	765.25
518.155	817.25
518.256	643.25
518.357	818.25
518.458	574.25
518.56	605.25
518.661	659.25
518.762	636.25
518.863	742.25
518.964	671.25
519.065	618.25
519.166	522.25
519.268	519.25
519.369	842.25
519.47	613.25
519.571	645.25
519.672	540.25
519.773	546.25
519.874	592.25
519.975	616.25
520.076	581.25
520.177	608.25
520.278	568.25
520.379	614.25
520.48	480.25
520.581	481.25
520.682	551.25
520.783	491.25
520.884	583.25
520.985	600.25
521.086	526.25
521.187	590.25
521.288	589.25
521.389	617.25
521.489	547.25
521.59	504.25
521.691	625.25
521.792	516.25
521.893	627.25
521.994	766.25
522.095	615.25
522.195	623.25
522.296	674.25
522.397	654.25
522.498	617.25
522.599	516.25
522.699	608.25
522.8	598.25
522.901	660.25
523.002	616.25
523.102	798.25
523.203	601.25
523.304	794.25
523.405	521.25
523.505	576.25
523.606	617.25
523.707	607.25
523.807	567.25
523.908	648.25
524.009	702.25
524.109	630.25
524.21	547.25
524.31	656.25
524.411	674.25
524.512	711.25
524.612	692.25
524.713	752.25
524.813	589.25
524.914	862.25
525.014	5576.25
525.115	1063.25
525.216	602.25
525.316	630.25
525.417	628.25
525.517	558.25
525.618	613.25
525.718	546.25
525.819	526.25
525.919	655.25
526.019	562.25
526.12	645.25
526.22	557.25
526.321	579.25
526.421	502.25
526.522	549.25
526.622	530.25
526.722	510.25
526.823	563.25
526.923	647.25
527.023	653.25
527.124	557.25
527.224	669.25
527.324	495.25
527.425	617.25
527.525	525.25
527.625	539.25
527.726	572.25
527.826	704.25
527.926	601.25
528.026	588.25
528.127	535.25
528.227	638.25
528.327	672.25
528.427	579.25
528.528	638.25
528.628	652.25
528.728	605.25
528.828	719.25
528.928	662.25
529.029	603.25
529.129	673.25
529.229	678.25
529.329	605.25
529.429	695.25
529.529	781.25
529.629	672.25
529.729	591.25
529.829	795.25
529.93	543.25
530.03	645.25
530.13	654.25
530.23	610.25
530.33	733.25
530.43	569.25
530.53	617.25
530.63	615.25
530.73	503.25
530.83	560.25
530.93	520.25
531.03	544.25
531.13	689.25
531.23	532.25
531.33	593.25
531.429	702.25
531.529	735.25
531.629	614.25
531.729	504.25
531.829	515.25
531.929	501.25
532.029	579.25
532.129	606.25
532.229	604.25
532.328	553.25
532.428	592.25
532.528	475.25
532.628	510.25
532.728	628.25
532.827	535.25
532.927	599.25
533.027	610.25
533.127	670.25
533.227	615.25
533.326	602.25
533.426	592.25
533.526	664.25
533.625	672.25
533.725	863.25
533.825	677.25
533.924	527.25
534.024	505.25
534.124	444.25
534.223	610.25
534.323	926.25
534.423	585.25
534.522	597.25
534.622	493.25
534.722	569.25
534.821	541.25
534.921	488.25
535.02	499.25
535.12	587.25
535.219	670.25
535.319	640.25
535.419	611.25
535.518	489.25
535.618	603.25
535.717	677.25
535.817	483.25
535.916	434.25
536.016	599.25
536.115	469.25
536.215	503.25
536.314	483.25
536.413	378.25
536.513	499.25
536.612	549.25
536.712	412.25
536.811	488.25
536.91	461.25
537.01	432.25
537.109	500.25
537.209	493.25
537.308	496.25
537.407	465.25
537.507	478.25
537.606	488.25
537.705	545.25
537.805	505.25
537.904	473.25
538.003	527.25
538.102	589.25
538.202	481.25
538.301	552.25
538.4	518.25
538.499	514.25
538.599	580.25
538.698	703.25
538.797	514.25
538.896	623.25
538.995	545.25
539.095	482.25
539.194	698.25
539.293	524.25
539.392	469.25
539.491	494.25
539.59	512.25
539.689	602.25
539.789	568.25
539.888	443.25
539.987	390.25
540.086	475.25
540.185	537.25
540.284	507.25
540.383	504.25
540.482	501.25
540.581	480.25
540.68	433.25
540.779	517.25
540.878	542.25
540.977	578.25
541.076	529.25
541.175	557.25
541.274	772.25
541.373	600.25
541.472	593.25
541.571	417.25
541.67	1843.25
541.769	757.25
541.868	565.25
541.966	542.25
542.065	513.25
542.164	550.25
542.263	449.25
542.362	515.25
542.461	591.25
542.56	561.25
542.658	540.25
542.757	485.25
542.856	430.25
542.955	452.25
543.054	461.25
543.152	606.25
543.251	506.25
543.35	651.25
543.449	553.25
543.547	500.25
543.646	468.25
543.745	567.25
543.843	534.25
543.942	540.25
544.041	516.25
544.14	515.25
544.238	506.25
544.337	794.25
544.436	564.25
544.534	665.25
544.633	583.25
544.731	582.25
544.83	572.25
544.929	529.25
545.027	528.25
545.126	500.25
545.224	602.25
545.323	531.25
545.421	557.25
545.52	536.25
545.619	588.25
545.717	537.25
