Data from 28g_HRC06701__6__372.txt Node

Date: Thu Apr 18 02:20:37 CDT 2024
User: Estudiantes 2
Spectrometer: HR+C0670
Trigger mode: 4
Integration Time (sec): 1.000000E0
Scans to average: 1
Electric dark correction enabled: true
Nonlinearity correction enabled: false
Boxcar width: 0
XAxis mode: Wavelengths
Number of Pixels in Spectrum: 2048
>>>>>Begin Spectral Data<<<<<
407.81	-151.38
407.921	-151.38
408.032	-151.38
408.143	-111.38
408.254	-144.38
408.365	-0.38
408.476	285.62
408.587	-6.38
408.699	-5.38
408.81	-32.38
408.921	-35.38
409.032	-74.38
409.143	58.62
409.254	42.62
409.365	68.62
409.476	10.62
409.587	38.62
409.698	56.62
409.809	58.62
409.92	9.62
410.031	-31.38
410.142	62.62
410.253	4.62
410.364	66.62
410.475	61.62
410.585	734.62
410.696	772.62
410.807	740.62
410.918	739.62
411.029	828.62
411.14	784.62
411.251	699.62
411.362	840.62
411.472	794.62
411.583	786.62
411.694	871.62
411.805	827.62
411.916	793.62
412.026	933.62
412.137	894.62
412.248	756.62
412.359	755.62
412.47	794.62
412.58	723.62
412.691	815.62
412.802	816.62
412.912	779.62
413.023	756.62
413.134	773.62
413.245	845.62
413.355	760.62
413.466	740.62
413.577	805.62
413.687	811.62
413.798	643.62
413.909	879.62
414.019	744.62
414.13	806.62
414.24	801.62
414.351	848.62
414.462	942.62
414.572	826.62
414.683	897.62
414.793	801.62
414.904	1130.62
415.014	855.62
415.125	738.62
415.235	818.62
415.346	964.62
415.456	944.62
415.567	815.62
415.677	845.62
415.788	849.62
415.898	784.62
416.009	765.62
416.119	895.62
416.23	795.62
416.34	723.62
416.45	863.62
416.561	1587.62
416.671	919.62
416.782	799.62
416.892	709.62
417.002	850.62
417.113	876.62
417.223	772.62
417.333	736.62
417.444	839.62
417.554	881.62
417.664	846.62
417.775	713.62
417.885	827.62
417.995	815.62
418.106	1002.62
418.216	875.62
418.326	921.62
418.436	910.62
418.547	916.62
418.657	899.62
418.767	973.62
418.877	920.62
418.987	959.62
419.098	896.62
419.208	986.62
419.318	989.62
419.428	959.62
419.538	885.62
419.648	976.62
419.759	958.62
419.869	947.62
419.979	899.62
420.089	967.62
420.199	878.62
420.309	950.62
420.419	962.62
420.529	908.62
420.639	1365.62
420.749	1072.62
420.859	946.62
420.969	982.62
421.079	1265.62
421.189	991.62
421.299	982.62
421.409	898.62
421.519	1005.62
421.629	1050.62
421.739	939.62
421.849	942.62
421.959	953.62
422.069	1044.62
422.179	1009.62
422.289	961.62
422.399	1005.62
422.509	1149.62
422.619	4554.62
422.729	1344.62
422.838	1000.62
422.948	1091.62
423.058	1015.62
423.168	1051.62
423.278	1165.62
423.388	1133.62
423.498	1130.62
423.607	1189.62
423.717	1406.62
423.827	1367.62
423.937	1210.62
424.046	1183.62
424.156	1251.62
424.266	1151.62
424.376	1365.62
424.485	1310.62
424.595	1147.62
424.705	1146.62
424.815	1172.62
424.924	1589.62
425.034	1267.62
425.144	1056.62
425.253	1124.62
425.363	1236.62
425.473	1232.62
425.582	1065.62
425.692	1189.62
425.801	1142.62
425.911	1293.62
426.021	1246.62
426.13	1337.62
426.24	1425.62
426.349	1291.62
426.459	1242.62
426.568	1131.62
426.678	1265.62
426.787	1237.62
426.897	1172.62
427.006	1214.62
427.116	1317.62
427.225	1296.62
427.335	1288.62
427.444	1253.62
427.554	1373.62
427.663	1280.62
427.773	1286.62
427.882	1346.62
427.992	1198.62
428.101	1276.62
428.21	1359.62
428.32	1316.62
428.429	1239.62
428.539	1617.62
428.648	1346.62
428.757	1341.62
428.867	1338.62
428.976	1446.62
429.085	1373.62
429.195	1375.62
429.304	1400.62
429.413	1391.62
429.523	1434.62
429.632	1478.62
429.741	1405.62
429.85	1340.62
429.96	1410.62
430.069	1400.62
430.178	1328.62
430.287	1644.62
430.397	1466.62
430.506	1378.62
430.615	1383.62
430.724	1504.62
430.833	1427.62
430.943	1402.62
431.052	1477.62
431.161	1415.62
431.27	1471.62
431.379	1504.62
431.488	1695.62
431.597	1605.62
431.706	1643.62
431.816	1654.62
431.925	1575.62
432.034	1571.62
432.143	1728.62
432.252	1590.62
432.361	1681.62
432.47	1629.62
432.579	1542.62
432.688	1545.62
432.797	1598.62
432.906	1563.62
433.015	1554.62
433.124	2019.62
433.233	1681.62
433.342	1627.62
433.451	1601.62
433.56	1639.62
433.669	1610.62
433.778	1531.62
433.886	1683.62
433.995	1582.62
434.104	1820.62
434.213	1718.62
434.322	1725.62
434.431	1886.62
434.54	1815.62
434.649	2027.62
434.757	1899.62
434.866	1854.62
434.975	1927.62
435.084	1817.62
435.193	1742.62
435.301	1911.62
435.41	2012.62
435.519	2045.62
435.628	1621.62
435.737	1536.62
435.845	1486.62
435.954	1455.62
436.063	1598.62
436.171	1499.62
436.28	1539.62
436.389	1707.62
436.498	1516.62
436.606	1551.62
436.715	1746.62
436.823	1492.62
436.932	1434.62
437.041	1447.62
437.149	1539.62
437.258	1446.62
437.367	1392.62
437.475	1447.62
437.584	1636.62
437.692	1474.62
437.801	3008.62
437.91	1486.62
438.018	1369.62
438.127	1350.62
438.235	1499.62
438.344	1422.62
438.452	1450.62
438.561	1347.62
438.669	1342.62
438.778	1330.62
438.886	1393.62
438.995	1296.62
439.103	1309.62
439.212	1367.62
439.32	1372.62
439.428	1315.62
439.537	1447.62
439.645	1444.62
439.754	1456.62
439.862	1308.62
439.97	1441.62
440.079	1409.62
440.187	1332.62
440.295	1582.62
440.404	1433.62
440.512	1446.62
440.62	1475.62
440.729	1492.62
440.837	1555.62
440.945	2176.62
441.054	1582.62
441.162	1550.62
441.27	1658.62
441.378	1677.62
441.487	1591.62
441.595	2001.62
441.703	1758.62
441.811	1614.62
441.92	1565.62
442.028	1533.62
442.136	1532.62
442.244	1552.62
442.352	1610.62
442.461	1454.62
442.569	1458.62
442.677	1455.62
442.785	1602.62
442.893	1510.62
443.001	1458.62
443.109	1475.62
443.217	1468.62
443.325	1438.62
443.434	2111.62
443.542	1750.62
443.65	1532.62
443.758	1761.62
443.866	1556.62
443.974	1850.62
444.082	1725.62
444.19	1735.62
444.298	1671.62
444.406	1858.62
444.514	1875.62
444.622	1963.62
444.73	1897.62
444.838	1822.62
444.946	1827.62
445.054	1672.62
445.161	1693.62
445.269	1569.62
445.377	1613.62
445.485	1668.62
445.593	1622.62
445.701	1741.62
445.809	1639.62
445.917	1629.62
446.025	1460.62
446.132	1614.62
446.24	1617.62
446.348	1572.62
446.456	1492.62
446.564	1512.62
446.671	1536.62
446.779	1489.62
446.887	1508.62
446.995	1549.62
447.102	1519.62
447.21	1500.62
447.318	1471.62
447.426	1421.62
447.533	1793.62
447.641	2775.62
447.749	1626.62
447.856	1455.62
447.964	1494.62
448.072	1575.62
448.179	1424.62
448.287	1548.62
448.395	1562.62
448.502	1432.62
448.61	1498.62
448.718	1507.62
448.825	1479.62
448.933	1460.62
449.04	1533.62
449.148	1462.62
449.256	1479.62
449.363	1528.62
449.471	1557.62
449.578	1612.62
449.686	1506.62
449.793	1680.62
449.901	1570.62
450.008	1548.62
450.116	1654.62
450.223	1573.62
450.331	1689.62
450.438	1783.62
450.546	1679.62
450.653	1714.62
450.76	1808.62
450.868	1773.62
450.975	1942.62
451.083	1782.62
451.19	1818.62
451.297	1713.62
451.405	1808.62
451.512	1757.62
451.619	1830.62
451.727	1870.62
451.834	1815.62
451.941	1764.62
452.049	1702.62
452.156	1816.62
452.263	1806.62
452.371	1781.62
452.478	1853.62
452.585	2020.62
452.692	1796.62
452.8	1842.62
452.907	2009.62
453.014	1881.62
453.121	1832.62
453.229	1914.62
453.336	1888.62
453.443	1931.62
453.55	1884.62
453.657	1927.62
453.765	1952.62
453.872	1923.62
453.979	1999.62
454.086	1923.62
454.193	1936.62
454.3	1955.62
454.407	2036.62
454.514	2070.62
454.621	1957.62
454.729	1895.62
454.836	1910.62
454.943	1951.62
455.05	2027.62
455.157	2030.62
455.264	1946.62
455.371	2085.62
455.478	1982.62
455.585	2254.62
455.692	2076.62
455.799	2144.62
455.906	2011.62
456.013	2043.62
456.12	2018.62
456.227	2013.62
456.334	2096.62
456.44	2148.62
456.547	2067.62
456.654	2041.62
456.761	2123.62
456.868	2194.62
456.975	2194.62
457.082	2146.62
457.189	2022.62
457.296	2163.62
457.402	2116.62
457.509	2053.62
457.616	2170.62
457.723	2396.62
457.83	2221.62
457.936	2201.62
458.043	2573.62
458.15	2389.62
458.257	2359.62
458.363	2372.62
458.47	2382.62
458.577	2531.62
458.684	2498.62
458.79	2659.62
458.897	2594.62
459.004	2696.62
459.11	2654.62
459.217	2664.62
459.324	2767.62
459.43	2812.62
459.537	3022.62
459.644	2874.62
459.75	2800.62
459.857	3331.62
459.964	2993.62
460.07	3054.62
460.177	3117.62
460.283	3131.62
460.39	3159.62
460.496	3141.62
460.603	3136.62
460.71	3061.62
460.816	2983.62
460.923	3021.62
461.029	3053.62
461.136	3015.62
461.242	3044.62
461.349	3021.62
461.455	2981.62
461.562	3386.62
461.668	3149.62
461.774	3099.62
461.881	3234.62
461.987	3253.62
462.094	3261.62
462.2	3312.62
462.307	3381.62
462.413	3287.62
462.519	3356.62
462.626	3714.62
462.732	3656.62
462.838	3936.62
462.945	4103.62
463.051	4052.62
463.157	3947.62
463.264	3821.62
463.37	3651.62
463.476	3578.62
463.583	3455.62
463.689	3415.62
463.795	3519.62
463.901	3589.62
464.008	3741.62
464.114	3514.62
464.22	3546.62
464.326	3516.62
464.433	3341.62
464.539	3348.62
464.645	3263.62
464.751	3450.62
464.857	3229.62
464.963	2999.62
465.07	2994.62
465.176	2810.62
465.282	2678.62
465.388	2850.62
465.494	2469.62
465.6	2500.62
465.706	2454.62
465.812	2327.62
465.918	2458.62
466.024	2350.62
466.131	2381.62
466.237	2277.62
466.343	2157.62
466.449	2187.62
466.555	2145.62
466.661	2100.62
466.767	2109.62
466.873	2060.62
466.979	2282.62
467.085	2208.62
467.191	2067.62
467.296	2126.62
467.402	2055.62
467.508	2094.62
467.614	2217.62
467.72	2000.62
467.826	2055.62
467.932	1948.62
468.038	1898.62
468.144	1955.62
468.25	1917.62
468.355	1906.62
468.461	2043.62
468.567	1911.62
468.673	1901.62
468.779	2026.62
468.885	1941.62
468.99	1794.62
469.096	1873.62
469.202	2022.62
469.308	1921.62
469.413	1955.62
469.519	1966.62
469.625	1949.62
469.731	1975.62
469.836	1948.62
469.942	2208.62
470.048	2030.62
470.153	2044.62
470.259	2033.62
470.365	2066.62
470.47	2053.62
470.576	2053.62
470.682	2010.62
470.787	1925.62
470.893	1930.62
470.999	1914.62
471.104	1942.62
471.21	1787.62
471.315	1713.62
471.421	1692.62
471.527	1975.62
471.632	1856.62
471.738	1749.62
471.843	1660.62
471.949	1791.62
472.054	1696.62
472.16	1669.62
472.265	1718.62
472.371	1615.62
472.476	1651.62
472.582	1753.62
472.687	1604.62
472.793	1584.62
472.898	1590.62
473.003	1594.62
473.109	1568.62
473.214	1555.62
473.32	1623.62
473.425	1646.62
473.53	1616.62
473.636	1562.62
473.741	1538.62
473.847	1572.62
473.952	1632.62
474.057	1590.62
474.163	1632.62
474.268	1569.62
474.373	1718.62
474.478	1503.62
474.584	1507.62
474.689	1659.62
474.794	1568.62
474.9	1805.62
475.005	1586.62
475.11	1779.62
475.215	1550.62
475.321	1643.62
475.426	1707.62
475.531	1713.62
475.636	1559.62
475.741	1605.62
475.846	1690.62
475.952	1790.62
476.057	1681.62
476.162	1643.62
476.267	1726.62
476.372	1981.62
476.477	1665.62
476.582	1766.62
476.687	1643.62
476.793	1621.62
476.898	1623.62
477.003	1744.62
477.108	1667.62
477.213	1637.62
477.318	1708.62
477.423	1816.62
477.528	1806.62
477.633	1856.62
477.738	1905.62
477.843	1726.62
477.948	1831.62
478.053	1800.62
478.158	1835.62
478.263	1811.62
478.368	1858.62
478.473	1959.62
478.578	1968.62
478.682	1915.62
478.787	2046.62
478.892	1904.62
478.997	1985.62
479.102	1987.62
479.207	1879.62
479.312	2000.62
479.417	1984.62
479.521	1968.62
479.626	2042.62
479.731	1959.62
479.836	2048.62
479.941	2116.62
480.045	2173.62
480.15	2221.62
480.255	2096.62
480.36	2042.62
480.465	2183.62
480.569	2319.62
480.674	2017.62
480.779	1974.62
480.883	1960.62
480.988	2124.62
481.093	2075.62
481.197	2030.62
481.302	2034.62
481.407	2081.62
481.511	4052.62
481.616	2086.62
481.721	2005.62
481.825	2237.62
481.93	1942.62
482.035	1959.62
482.139	2060.62
482.244	2046.62
482.348	1980.62
482.453	1981.62
482.557	2054.62
482.662	2039.62
482.767	2011.62
482.871	2011.62
482.976	2011.62
483.08	2098.62
483.185	2235.62
483.289	2077.62
483.394	2101.62
483.498	2218.62
483.603	2129.62
483.707	2159.62
483.811	2230.62
483.916	2359.62
484.02	2194.62
484.125	2272.62
484.229	2310.62
484.333	2294.62
484.438	2195.62
484.542	2287.62
484.647	2231.62
484.751	2284.62
484.855	2304.62
484.96	2340.62
485.064	2335.62
485.168	2368.62
485.273	2396.62
485.377	2408.62
485.481	2623.62
485.585	2516.62
485.69	2348.62
485.794	2589.62
485.898	2461.62
486.002	2452.62
486.107	2414.62
486.211	2537.62
486.315	2550.62
486.419	2543.62
486.524	2502.62
486.628	2435.62
486.732	2414.62
486.836	2503.62
486.94	2606.62
487.044	2475.62
487.148	2543.62
487.253	2498.62
487.357	2496.62
487.461	2687.62
487.565	2504.62
487.669	2485.62
487.773	2413.62
487.877	2593.62
487.981	2630.62
488.085	2546.62
488.189	2482.62
488.293	2685.62
488.397	3028.62
488.501	2571.62
488.605	2578.62
488.709	2489.62
488.813	2518.62
488.917	2419.62
489.021	2585.62
489.125	2885.62
489.229	2630.62
489.333	2761.62
489.437	2582.62
489.541	2599.62
489.645	2588.62
489.749	2577.62
489.853	2656.62
489.956	2619.62
490.06	2592.62
490.164	2685.62
490.268	2511.62
490.372	2547.62
490.476	2557.62
490.579	2551.62
490.683	3351.62
490.787	2700.62
490.891	2588.62
490.995	2626.62
491.098	2568.62
491.202	2609.62
491.306	2682.62
491.41	2603.62
491.513	2526.62
491.617	2552.62
491.721	2743.62
491.824	2780.62
491.928	2540.62
492.032	2912.62
492.136	2572.62
492.239	2570.62
492.343	2699.62
492.446	2981.62
492.55	2700.62
492.654	2584.62
492.757	2549.62
492.861	2614.62
492.965	2622.62
493.068	2678.62
493.172	2643.62
493.275	2597.62
493.379	2636.62
493.482	2720.62
493.586	2792.62
493.689	2898.62
493.793	2631.62
493.896	2712.62
494	2802.62
494.103	2776.62
494.207	3044.62
494.31	3107.62
494.414	2752.62
494.517	2672.62
494.621	2670.62
494.724	2692.62
494.828	2632.62
494.931	2591.62
495.034	2619.62
495.138	2718.62
495.241	2551.62
495.345	3459.62
495.448	2753.62
495.551	2583.62
495.655	2534.62
495.758	2580.62
495.861	2588.62
495.965	2535.62
496.068	2683.62
496.171	2695.62
496.274	2605.62
496.378	2653.62
496.481	2631.62
496.584	2560.62
496.687	2679.62
496.791	2712.62
496.894	2655.62
496.997	2709.62
497.1	2772.62
497.204	2704.62
497.307	2654.62
497.41	2946.62
497.513	3002.62
497.616	2779.62
497.719	2877.62
497.823	2837.62
497.926	2906.62
498.029	3091.62
498.132	2979.62
498.235	3067.62
498.338	3207.62
498.441	3394.62
498.544	3331.62
498.647	3518.62
498.75	3810.62
498.853	3807.62
498.956	3827.62
499.059	4245.62
499.163	4123.62
499.266	4306.62
499.369	4462.62
499.471	4686.62
499.574	4977.62
499.677	5134.62
499.78	5377.62
499.883	5787.62
499.986	6207.62
500.089	6482.62
500.192	6521.62
500.295	6630.62
500.398	6631.62
500.501	6369.62
500.604	6135.62
500.707	5795.62
500.809	5602.62
500.912	5393.62
501.015	5103.62
501.118	4680.62
501.221	4528.62
501.324	4132.62
501.426	4145.62
501.529	3852.62
501.632	3692.62
501.735	3479.62
501.837	3385.62
501.94	3278.62
502.043	3228.62
502.146	3157.62
502.248	3058.62
502.351	2958.62
502.454	2963.62
502.557	2759.62
502.659	2772.62
502.762	2692.62
502.865	2623.62
502.967	2578.62
503.07	2596.62
503.173	2574.62
503.275	2426.62
503.378	2530.62
503.48	2376.62
503.583	2513.62
503.686	2423.62
503.788	2636.62
503.891	2370.62
503.993	2648.62
504.096	2408.62
504.198	2461.62
504.301	2414.62
504.403	2490.62
504.506	2449.62
504.608	2349.62
504.711	2322.62
504.813	2307.62
504.916	2183.62
505.018	2171.62
505.121	2032.62
505.223	2080.62
505.326	2030.62
505.428	2108.62
505.531	1981.62
505.633	1972.62
505.735	1978.62
505.838	1873.62
505.94	1908.62
506.042	1838.62
506.145	1820.62
506.247	1881.62
506.35	1818.62
506.452	1951.62
506.554	1863.62
506.656	1846.62
506.759	1850.62
506.861	1835.62
506.963	1846.62
507.066	1955.62
507.168	1923.62
507.27	1770.62
507.372	1766.62
507.475	1758.62
507.577	1798.62
507.679	1795.62
507.781	1664.62
507.883	1732.62
507.986	1648.62
508.088	1814.62
508.19	1674.62
508.292	1738.62
508.394	1709.62
508.496	1631.62
508.598	1680.62
508.701	1726.62
508.803	1677.62
508.905	1606.62
509.007	1730.62
509.109	1752.62
509.211	1647.62
509.313	1630.62
509.415	1669.62
509.517	1625.62
509.619	1642.62
509.721	1743.62
509.823	1606.62
509.925	1818.62
510.027	1660.62
510.129	1700.62
510.231	1685.62
510.333	1608.62
510.435	1580.62
510.537	1687.62
510.639	1706.62
510.741	1686.62
510.843	1715.62
510.945	1711.62
511.047	1734.62
511.148	1661.62
511.25	1589.62
511.352	1694.62
511.454	1536.62
511.556	1692.62
511.658	1657.62
511.76	1746.62
511.861	1824.62
511.963	1630.62
512.065	1589.62
512.167	1614.62
512.268	1842.62
512.37	1744.62
512.472	1632.62
512.574	1695.62
512.676	1737.62
512.777	1603.62
512.879	1648.62
512.981	1681.62
513.082	1670.62
513.184	1708.62
513.286	2162.62
513.387	1786.62
513.489	1826.62
513.591	1702.62
513.692	1817.62
513.794	1744.62
513.896	1621.62
513.997	1675.62
514.099	1637.62
514.2	1758.62
514.302	1762.62
514.404	1714.62
514.505	1679.62
514.607	1756.62
514.708	1784.62
514.81	1778.62
514.911	1826.62
515.013	1957.62
515.114	1793.62
515.216	1801.62
515.317	1845.62
515.419	1766.62
515.52	1824.62
515.622	1862.62
515.723	1988.62
515.825	2034.62
515.926	1901.62
516.027	1926.62
516.129	1906.62
516.23	1985.62
516.332	2154.62
516.433	2067.62
516.534	2198.62
516.636	2138.62
516.737	2143.62
516.838	3287.62
516.94	2392.62
517.041	2406.62
517.142	2602.62
517.244	2573.62
517.345	2584.62
517.446	2531.62
517.547	2626.62
517.649	2516.62
517.75	2534.62
517.851	2537.62
517.952	2774.62
518.054	2514.62
518.155	2508.62
518.256	2312.62
518.357	2488.62
518.458	2171.62
518.56	2215.62
518.661	2149.62
518.762	2167.62
518.863	2276.62
518.964	2319.62
519.065	2045.62
519.166	2035.62
519.268	2044.62
519.369	2378.62
519.47	2054.62
519.571	2011.62
519.672	1980.62
519.773	2017.62
519.874	1996.62
519.975	2132.62
520.076	1972.62
520.177	2039.62
520.278	2007.62
520.379	1955.62
520.48	1880.62
520.581	1928.62
520.682	1948.62
520.783	1882.62
520.884	1928.62
520.985	2034.62
521.086	1958.62
521.187	2037.62
521.288	1959.62
521.389	1943.62
521.489	1932.62
521.59	1919.62
521.691	1941.62
521.792	1891.62
521.893	2108.62
521.994	2111.62
522.095	1945.62
522.195	1954.62
522.296	2119.62
522.397	2029.62
522.498	1972.62
522.599	1959.62
522.699	1931.62
522.8	1903.62
522.901	2074.62
523.002	1983.62
523.102	2082.62
523.203	1974.62
523.304	2062.62
523.405	1894.62
523.505	1948.62
523.606	1991.62
523.707	1980.62
523.807	1974.62
523.908	1958.62
524.009	2037.62
524.109	1906.62
524.21	1956.62
524.31	1989.62
524.411	2071.62
524.512	2079.62
524.612	1951.62
524.713	2145.62
524.813	1991.62
524.914	2249.62
525.014	6938.62
525.115	2354.62
525.216	1985.62
525.316	1995.62
525.417	2000.62
525.517	2017.62
525.618	1911.62
525.718	1888.62
525.819	1943.62
525.919	2014.62
526.019	1889.62
526.12	2004.62
526.22	1872.62
526.321	1915.62
526.421	1910.62
526.522	1923.62
526.622	1935.62
526.722	1917.62
526.823	2052.62
526.923	1957.62
527.023	2039.62
527.124	1972.62
527.224	2104.62
527.324	1830.62
527.425	1995.62
527.525	1904.62
527.625	1956.62
527.726	1924.62
527.826	2098.62
527.926	1906.62
528.026	1936.62
528.127	1967.62
528.227	1946.62
528.327	2012.62
528.427	1992.62
528.528	1981.62
528.628	1964.62
528.728	2018.62
528.828	2096.62
528.928	2026.62
529.029	1954.62
529.129	2005.62
529.229	1955.62
529.329	1958.62
529.429	2078.62
529.529	2072.62
529.629	2009.62
529.729	1939.62
529.829	2150.62
529.93	1941.62
530.03	2023.62
530.13	2002.62
530.23	1898.62
530.33	2041.62
530.43	1975.62
530.53	2039.62
530.63	2007.62
530.73	1861.62
530.83	1813.62
530.93	1891.62
531.03	1909.62
531.13	2032.62
531.23	1832.62
531.33	1931.62
531.429	2046.62
531.529	2024.62
531.629	1968.62
531.729	1867.62
531.829	1794.62
531.929	1909.62
532.029	1972.62
532.129	1892.62
532.229	1904.62
532.328	1866.62
532.428	1830.62
532.528	1873.62
532.628	1834.62
532.728	1908.62
532.827	1849.62
532.927	1866.62
533.027	1845.62
533.127	1959.62
533.227	1882.62
533.326	1957.62
533.426	1734.62
533.526	1937.62
533.625	2054.62
533.725	2190.62
533.825	1964.62
533.924	1798.62
534.024	1778.62
534.124	1727.62
534.223	1795.62
534.323	2195.62
534.423	1796.62
534.522	1864.62
534.622	1733.62
534.722	1716.62
534.821	1757.62
534.921	1704.62
535.02	1649.62
535.12	1773.62
535.219	1882.62
535.319	1817.62
535.419	1825.62
535.518	1689.62
535.618	1798.62
535.717	1707.62
535.817	1649.62
535.916	1511.62
536.016	1707.62
536.115	1604.62
536.215	1715.62
536.314	1656.62
536.413	1525.62
536.513	1627.62
536.612	1604.62
536.712	1503.62
536.811	1586.62
536.91	1568.62
537.01	1537.62
537.109	1590.62
537.209	1627.62
537.308	1495.62
537.407	1507.62
537.507	1588.62
537.606	1540.62
537.705	1642.62
537.805	1593.62
537.904	1574.62
538.003	1565.62
538.102	1687.62
538.202	1613.62
538.301	1617.62
538.4	1619.62
538.499	1604.62
538.599	1554.62
