Data from 28g_HRC06701__55__421.txt Node

Date: Thu Apr 18 02:21:26 CDT 2024
User: Estudiantes 2
Spectrometer: HR+C0670
Trigger mode: 4
Integration Time (sec): 1.000000E0
Scans to average: 1
Electric dark correction enabled: true
Nonlinearity correction enabled: false
Boxcar width: 0
XAxis mode: Wavelengths
Number of Pixels in Spectrum: 2048
>>>>>Begin Spectral Data<<<<<
407.81	-119.25
407.921	-119.25
408.032	-119.25
408.143	-142.25
408.254	-148.25
408.365	54.75
408.476	271.75
408.587	-30.25
408.699	8.75
408.81	0.75
408.921	-58.25
409.032	-6.25
409.143	45.75
409.254	21.75
409.365	73.75
409.476	-16.25
409.587	-17.25
409.698	60.75
409.809	127.75
409.92	-51.25
410.031	-45.25
410.142	93.75
410.253	5.75
410.364	57.75
410.475	-6.25
410.585	10.75
410.696	39.75
410.807	23.75
410.918	39.75
411.029	47.75
411.14	18.75
411.251	43.75
411.362	57.75
411.472	33.75
411.583	89.75
411.694	83.75
411.805	19.75
411.916	38.75
412.026	109.75
412.137	63.75
412.248	72.75
412.359	52.75
412.47	3.75
412.58	-10.25
412.691	84.75
412.802	67.75
412.912	21.75
413.023	72.75
413.134	22.75
413.245	104.75
413.355	40.75
413.466	-1.25
413.577	-4.25
413.687	143.75
413.798	4.75
413.909	59.75
414.019	12.75
414.13	100.75
414.24	-22.25
414.351	49.75
414.462	226.75
414.572	90.75
414.683	90.75
414.793	83.75
414.904	359.75
415.014	25.75
415.125	6.75
415.235	86.75
415.346	121.75
415.456	133.75
415.567	63.75
415.677	63.75
415.788	67.75
415.898	83.75
416.009	51.75
416.119	70.75
416.23	55.75
416.34	-1.25
416.45	51.75
416.561	912.75
416.671	219.75
416.782	-16.25
416.892	-13.25
417.002	104.75
417.113	83.75
417.223	31.75
417.333	57.75
417.444	12.75
417.554	33.75
417.664	77.75
417.775	-12.25
417.885	23.75
417.995	58.75
418.106	177.75
418.216	88.75
418.326	65.75
418.436	52.75
418.547	-7.25
418.657	-9.25
418.767	148.75
418.877	22.75
418.987	-35.25
419.098	35.75
419.208	60.75
419.318	90.75
419.428	85.75
419.538	56.75
419.648	45.75
419.759	72.75
419.869	93.75
419.979	0.75
420.089	66.75
420.199	31.75
420.309	51.75
420.419	82.75
420.529	39.75
420.639	585.75
420.749	116.75
420.859	106.75
420.969	80.75
421.079	288.75
421.189	108.75
421.299	141.75
421.409	-14.25
421.519	148.75
421.629	223.75
421.739	5.75
421.849	-32.25
421.959	2.75
422.069	66.75
422.179	-10.25
422.289	9.75
422.399	71.75
422.509	114.75
422.619	2701.75
422.729	385.75
422.838	-37.25
422.948	31.75
423.058	36.75
423.168	4.75
423.278	21.75
423.388	59.75
423.498	75.75
423.607	52.75
423.717	340.75
423.827	356.75
423.937	44.75
424.046	141.75
424.156	149.75
424.266	30.75
424.376	219.75
424.485	203.75
424.595	39.75
424.705	2.75
424.815	74.75
424.924	486.75
425.034	124.75
425.144	-19.25
425.253	81.75
425.363	70.75
425.473	133.75
425.582	33.75
425.692	-5.25
425.801	-7.25
425.911	197.75
426.021	70.75
426.13	123.75
426.24	306.75
426.349	176.75
426.459	48.75
426.568	31.75
426.678	191.75
426.787	11.75
426.897	1.75
427.006	84.75
427.116	84.75
427.225	44.75
427.335	136.75
427.444	-5.25
427.554	121.75
427.663	79.75
427.773	30.75
427.882	64.75
427.992	-1.25
428.101	34.75
428.21	6.75
428.32	-8.25
428.429	6.75
428.539	239.75
428.648	15.75
428.757	131.75
428.867	58.75
428.976	142.75
429.085	92.75
429.195	40.75
429.304	-13.25
429.413	102.75
429.523	107.75
429.632	104.75
429.741	65.75
429.85	36.75
429.96	71.75
430.069	35.75
430.178	55.75
430.287	280.75
430.397	35.75
430.506	82.75
430.615	52.75
430.724	37.75
430.833	67.75
430.943	85.75
431.052	56.75
431.161	17.75
431.27	83.75
431.379	-31.25
431.488	120.75
431.597	127.75
431.706	119.75
431.816	17.75
431.925	63.75
432.034	33.75
432.143	50.75
432.252	38.75
432.361	194.75
432.47	51.75
432.579	26.75
432.688	83.75
432.797	56.75
432.906	-0.25
433.015	141.75
433.124	420.75
433.233	105.75
433.342	137.75
433.451	63.75
433.56	57.75
433.669	39.75
433.778	69.75
433.886	71.75
433.995	23.75
434.104	235.75
434.213	55.75
434.322	26.75
434.431	179.75
434.54	44.75
434.649	199.75
434.757	113.75
434.866	75.75
434.975	135.75
435.084	161.75
435.193	178.75
435.301	346.75
435.41	456.75
435.519	567.75
435.628	108.75
435.737	45.75
435.845	76.75
435.954	-4.25
436.063	95.75
436.171	85.75
436.28	107.75
436.389	143.75
436.498	100.75
436.606	126.75
436.715	226.75
436.823	44.75
436.932	81.75
437.041	60.75
437.149	110.75
437.258	51.75
437.367	44.75
437.475	16.75
437.584	278.75
437.692	102.75
437.801	1560.75
437.91	255.75
438.018	89.75
438.127	6.75
438.235	121.75
438.344	75.75
438.452	49.75
438.561	9.75
438.669	91.75
438.778	14.75
438.886	41.75
438.995	51.75
439.103	36.75
439.212	14.75
439.32	12.75
439.428	47.75
439.537	36.75
439.645	87.75
439.754	141.75
439.862	-2.25
439.97	74.75
440.079	83.75
440.187	-16.25
440.295	120.75
440.404	39.75
440.512	87.75
440.62	79.75
440.729	99.75
440.837	139.75
440.945	711.75
441.054	140.75
441.162	77.75
441.27	111.75
441.378	48.75
441.487	78.75
441.595	375.75
441.703	168.75
441.811	130.75
441.92	60.75
442.028	7.75
442.136	69.75
442.244	139.75
442.352	36.75
442.461	7.75
442.569	35.75
442.677	-7.25
442.785	90.75
442.893	73.75
443.001	3.75
443.109	-31.25
443.217	-0.25
443.325	39.75
443.434	510.75
443.542	312.75
443.65	116.75
443.758	151.75
443.866	48.75
443.974	356.75
444.082	63.75
444.19	23.75
444.298	112.75
444.406	134.75
444.514	27.75
444.622	94.75
444.73	116.75
444.838	71.75
444.946	103.75
445.054	61.75
445.161	38.75
445.269	22.75
445.377	112.75
445.485	45.75
445.593	51.75
445.701	303.75
445.809	146.75
445.917	90.75
446.025	4.75
446.132	184.75
446.24	124.75
446.348	111.75
446.456	42.75
446.564	48.75
446.671	90.75
446.779	71.75
446.887	-11.25
446.995	61.75
447.102	121.75
447.21	136.75
447.318	44.75
447.426	12.75
447.533	276.75
447.641	1238.75
447.749	242.75
447.856	88.75
447.964	75.75
448.072	195.75
448.179	77.75
448.287	103.75
448.395	105.75
448.502	49.75
448.61	80.75
448.718	20.75
448.825	100.75
448.933	71.75
449.04	3.75
449.148	59.75
449.256	87.75
449.363	81.75
449.471	65.75
449.578	167.75
449.686	33.75
449.793	140.75
449.901	82.75
450.008	96.75
450.116	103.75
450.223	34.75
450.331	134.75
450.438	49.75
450.546	64.75
450.653	144.75
450.76	102.75
450.868	123.75
450.975	300.75
451.083	60.75
451.19	143.75
451.297	135.75
451.405	120.75
451.512	67.75
451.619	179.75
451.727	200.75
451.834	34.75
451.941	78.75
452.049	123.75
452.156	52.75
452.263	92.75
452.371	99.75
452.478	67.75
452.585	194.75
452.692	42.75
452.8	117.75
452.907	203.75
453.014	124.75
453.121	76.75
453.229	124.75
453.336	177.75
453.443	224.75
453.55	7.75
453.657	136.75
453.765	170.75
453.872	102.75
453.979	138.75
454.086	127.75
454.193	104.75
454.3	48.75
454.407	213.75
454.514	256.75
454.621	52.75
454.729	40.75
454.836	114.75
454.943	98.75
455.05	131.75
455.157	233.75
455.264	87.75
455.371	106.75
455.478	99.75
455.585	1330.75
455.692	233.75
455.799	240.75
455.906	121.75
456.013	38.75
456.12	45.75
456.227	138.75
456.334	106.75
456.44	228.75
456.547	143.75
456.654	63.75
456.761	110.75
456.868	184.75
456.975	145.75
457.082	70.75
457.189	11.75
457.296	158.75
457.402	63.75
457.509	58.75
457.616	169.75
457.723	285.75
457.83	136.75
457.936	109.75
458.043	367.75
458.15	130.75
458.257	171.75
458.363	126.75
458.47	74.75
458.577	146.75
458.684	108.75
458.79	120.75
458.897	115.75
459.004	226.75
459.11	82.75
459.217	116.75
459.324	206.75
459.43	213.75
459.537	349.75
459.644	134.75
459.75	73.75
459.857	453.75
459.964	163.75
460.07	234.75
460.177	129.75
460.283	175.75
460.39	351.75
460.496	187.75
460.603	194.75
460.71	202.75
460.816	103.75
460.923	113.75
461.029	188.75
461.136	181.75
461.242	175.75
461.349	175.75
461.455	131.75
461.562	472.75
461.668	228.75
461.774	194.75
461.881	229.75
461.987	155.75
462.094	200.75
462.2	171.75
462.307	247.75
462.413	171.75
462.519	116.75
462.626	261.75
462.732	162.75
462.838	221.75
462.945	198.75
463.051	208.75
463.157	195.75
463.264	165.75
463.37	262.75
463.476	238.75
463.583	203.75
463.689	131.75
463.795	181.75
463.901	236.75
464.008	286.75
464.114	133.75
464.22	129.75
464.326	151.75
464.433	128.75
464.539	229.75
464.645	130.75
464.751	359.75
464.857	231.75
464.963	89.75
465.07	172.75
465.176	244.75
465.282	204.75
465.388	248.75
465.494	102.75
465.6	180.75
465.706	102.75
465.812	49.75
465.918	214.75
466.024	88.75
466.131	154.75
466.237	147.75
466.343	75.75
466.449	70.75
466.555	82.75
466.661	87.75
466.767	54.75
466.873	108.75
466.979	297.75
467.085	87.75
467.191	102.75
467.296	100.75
467.402	22.75
467.508	121.75
467.614	256.75
467.72	124.75
467.826	74.75
467.932	111.75
468.038	88.75
468.144	106.75
468.25	92.75
468.355	57.75
468.461	111.75
468.567	56.75
468.673	154.75
468.779	95.75
468.885	99.75
468.99	84.75
469.096	73.75
469.202	184.75
469.308	147.75
469.413	146.75
469.519	86.75
469.625	84.75
469.731	141.75
469.836	68.75
469.942	254.75
470.048	146.75
470.153	139.75
470.259	96.75
470.365	208.75
470.47	152.75
470.576	106.75
470.682	112.75
470.787	94.75
470.893	14.75
470.999	90.75
471.104	223.75
471.21	55.75
471.315	33.75
471.421	89.75
471.527	209.75
471.632	143.75
471.738	170.75
471.843	69.75
471.949	127.75
472.054	148.75
472.16	105.75
472.265	85.75
472.371	54.75
472.476	156.75
472.582	162.75
472.687	75.75
472.793	97.75
472.898	82.75
473.003	73.75
473.109	70.75
473.214	20.75
473.32	35.75
473.425	163.75
473.53	130.75
473.636	66.75
473.741	60.75
473.847	98.75
473.952	71.75
474.057	134.75
474.163	173.75
474.268	31.75
474.373	98.75
474.478	69.75
474.584	44.75
474.689	113.75
474.794	120.75
474.9	368.75
475.005	53.75
475.11	251.75
475.215	114.75
475.321	83.75
475.426	237.75
475.531	250.75
475.636	66.75
475.741	33.75
475.846	221.75
475.952	307.75
476.057	120.75
476.162	201.75
476.267	290.75
476.372	405.75
476.477	110.75
476.582	227.75
476.687	51.75
476.793	87.75
476.898	140.75
477.003	109.75
477.108	79.75
477.213	63.75
477.318	54.75
477.423	114.75
477.528	188.75
477.633	243.75
477.738	113.75
477.843	79.75
477.948	132.75
478.053	65.75
478.158	68.75
478.263	170.75
478.368	89.75
478.473	127.75
478.578	143.75
478.682	56.75
478.787	138.75
478.892	105.75
478.997	229.75
479.102	89.75
479.207	96.75
479.312	303.75
479.417	128.75
479.521	64.75
479.626	212.75
479.731	123.75
479.836	96.75
479.941	229.75
480.045	189.75
480.15	130.75
480.255	118.75
480.36	131.75
480.465	153.75
480.569	268.75
480.674	171.75
480.779	36.75
480.883	23.75
480.988	169.75
481.093	128.75
481.197	110.75
481.302	134.75
481.407	176.75
481.511	1347.75
481.616	221.75
481.721	200.75
481.825	298.75
481.93	85.75
482.035	148.75
482.139	196.75
482.244	144.75
482.348	191.75
482.453	120.75
482.557	119.75
482.662	185.75
482.767	64.75
482.871	54.75
482.976	70.75
483.08	171.75
483.185	303.75
483.289	87.75
483.394	158.75
483.498	139.75
483.603	105.75
483.707	183.75
483.811	163.75
483.916	195.75
484.02	160.75
484.125	224.75
484.229	115.75
484.333	269.75
484.438	152.75
484.542	116.75
484.647	64.75
484.751	164.75
484.855	54.75
484.96	104.75
485.064	168.75
485.168	137.75
485.273	76.75
485.377	130.75
485.481	348.75
485.585	131.75
485.69	89.75
485.794	157.75
485.898	101.75
486.002	75.75
486.107	178.75
486.211	105.75
486.315	117.75
486.419	229.75
486.524	185.75
486.628	83.75
486.732	115.75
486.836	178.75
486.94	186.75
487.044	151.75
487.148	148.75
487.253	75.75
487.357	102.75
487.461	343.75
487.565	159.75
487.669	130.75
487.773	180.75
487.877	241.75
487.981	168.75
488.085	204.75
488.189	200.75
488.293	255.75
488.397	617.75
488.501	255.75
488.605	126.75
488.709	144.75
488.813	167.75
488.917	101.75
489.021	121.75
489.125	435.75
489.229	156.75
489.333	267.75
489.437	205.75
489.541	186.75
489.645	129.75
489.749	192.75
489.853	262.75
489.956	138.75
490.06	171.75
490.164	189.75
490.268	127.75
490.372	177.75
490.476	167.75
490.579	108.75
490.683	739.75
490.787	320.75
490.891	181.75
490.995	188.75
491.098	204.75
491.202	211.75
491.306	194.75
491.41	167.75
491.513	146.75
491.617	103.75
491.721	299.75
491.824	497.75
491.928	176.75
492.032	380.75
492.136	185.75
492.239	137.75
492.343	148.75
492.446	534.75
492.55	257.75
492.654	100.75
492.757	109.75
492.861	229.75
492.965	113.75
493.068	149.75
493.172	195.75
493.275	126.75
493.379	131.75
493.482	284.75
493.586	333.75
493.689	383.75
493.793	148.75
493.896	301.75
494	199.75
494.103	276.75
494.207	525.75
494.31	540.75
494.414	204.75
494.517	204.75
494.621	130.75
494.724	167.75
494.828	128.75
494.931	211.75
495.034	119.75
495.138	313.75
495.241	206.75
495.345	860.75
495.448	316.75
495.551	215.75
495.655	146.75
495.758	113.75
495.861	144.75
495.965	165.75
496.068	175.75
496.171	207.75
496.274	135.75
496.378	130.75
496.481	214.75
496.584	201.75
496.687	172.75
496.791	203.75
496.894	266.75
496.997	167.75
497.1	185.75
497.204	230.75
497.307	115.75
497.41	312.75
497.513	412.75
497.616	234.75
497.719	115.75
497.823	169.75
497.926	191.75
498.029	200.75
498.132	195.75
498.235	244.75
498.338	189.75
498.441	276.75
498.544	188.75
498.647	211.75
498.75	283.75
498.853	361.75
498.956	226.75
499.059	417.75
499.163	236.75
499.266	301.75
499.369	252.75
499.471	246.75
499.574	424.75
499.677	299.75
499.78	328.75
499.883	324.75
499.986	360.75
500.089	288.75
500.192	341.75
500.295	386.75
500.398	282.75
500.501	354.75
500.604	349.75
500.707	279.75
500.809	326.75
500.912	432.75
501.015	378.75
501.118	289.75
501.221	392.75
501.324	296.75
501.426	268.75
501.529	240.75
501.632	268.75
501.735	168.75
501.837	157.75
501.94	240.75
502.043	182.75
502.146	251.75
502.248	263.75
502.351	141.75
502.454	195.75
502.557	189.75
502.659	225.75
502.762	127.75
502.865	147.75
502.967	160.75
503.07	139.75
503.173	165.75
503.275	189.75
503.378	140.75
503.48	154.75
503.583	264.75
503.686	194.75
503.788	410.75
503.891	233.75
503.993	350.75
504.096	162.75
504.198	186.75
504.301	146.75
504.403	99.75
504.506	131.75
504.608	180.75
504.711	91.75
504.813	213.75
504.916	240.75
505.018	135.75
505.121	85.75
505.223	216.75
505.326	164.75
505.428	213.75
505.531	156.75
505.633	205.75
505.735	81.75
505.838	110.75
505.94	138.75
506.042	100.75
506.145	41.75
506.247	242.75
506.35	106.75
506.452	184.75
506.554	227.75
506.656	165.75
506.759	65.75
506.861	167.75
506.963	169.75
507.066	165.75
507.168	220.75
507.27	176.75
507.372	69.75
507.475	67.75
507.577	198.75
507.679	99.75
507.781	76.75
507.883	145.75
507.986	109.75
508.088	160.75
508.19	167.75
508.292	217.75
508.394	98.75
508.496	69.75
508.598	121.75
508.701	84.75
508.803	104.75
508.905	106.75
509.007	112.75
509.109	173.75
509.211	182.75
509.313	106.75
509.415	71.75
509.517	142.75
509.619	124.75
509.721	123.75
509.823	92.75
509.925	298.75
510.027	110.75
510.129	161.75
510.231	143.75
510.333	83.75
510.435	65.75
510.537	193.75
510.639	192.75
510.741	88.75
510.843	189.75
510.945	169.75
511.047	169.75
511.148	148.75
511.25	149.75
511.352	140.75
511.454	67.75
511.556	203.75
511.658	111.75
511.76	171.75
511.861	243.75
511.963	87.75
512.065	65.75
512.167	111.75
512.268	307.75
512.37	135.75
512.472	112.75
512.574	202.75
512.676	151.75
512.777	96.75
512.879	96.75
512.981	54.75
513.082	123.75
513.184	141.75
513.286	599.75
513.387	154.75
513.489	242.75
513.591	240.75
513.692	231.75
513.794	158.75
513.896	89.75
513.997	74.75
514.099	66.75
514.2	173.75
514.302	123.75
514.404	68.75
514.505	81.75
514.607	155.75
514.708	97.75
514.81	165.75
514.911	244.75
515.013	203.75
515.114	161.75
515.216	164.75
515.317	116.75
515.419	99.75
515.52	191.75
515.622	140.75
515.723	156.75
515.825	271.75
515.926	154.75
516.027	103.75
516.129	66.75
516.23	169.75
516.332	155.75
516.433	113.75
516.534	270.75
516.636	119.75
516.737	100.75
516.838	1143.75
516.94	279.75
517.041	145.75
517.142	265.75
517.244	286.75
517.345	172.75
517.446	186.75
517.547	248.75
517.649	127.75
517.75	167.75
517.851	224.75
517.952	426.75
518.054	206.75
518.155	331.75
518.256	168.75
518.357	280.75
518.458	104.75
518.56	116.75
518.661	156.75
518.762	188.75
518.863	287.75
518.964	238.75
519.065	138.75
519.166	163.75
519.268	102.75
519.369	382.75
519.47	207.75
519.571	202.75
519.672	80.75
519.773	112.75
519.874	193.75
519.975	198.75
520.076	176.75
520.177	277.75
520.278	162.75
520.379	191.75
520.48	137.75
520.581	109.75
520.682	103.75
520.783	153.75
520.884	196.75
520.985	139.75
521.086	149.75
521.187	215.75
521.288	131.75
521.389	160.75
521.489	181.75
521.59	92.75
521.691	165.75
521.792	156.75
521.893	243.75
521.994	305.75
522.095	260.75
522.195	220.75
522.296	251.75
522.397	252.75
522.498	216.75
522.599	116.75
522.699	143.75
522.8	198.75
522.901	247.75
523.002	181.75
523.102	428.75
523.203	185.75
523.304	332.75
523.405	235.75
523.505	156.75
523.606	173.75
523.707	194.75
523.807	235.75
523.908	159.75
524.009	269.75
524.109	242.75
524.21	160.75
524.31	262.75
524.411	305.75
524.512	268.75
524.612	194.75
524.713	360.75
524.813	183.75
524.914	410.75
525.014	4963.75
525.115	672.75
525.216	149.75
525.316	180.75
525.417	240.75
525.517	150.75
525.618	137.75
525.718	156.75
525.819	109.75
525.919	195.75
526.019	200.75
526.12	213.75
526.22	106.75
526.321	149.75
526.421	87.75
526.522	127.75
526.622	122.75
526.722	176.75
526.823	142.75
526.923	192.75
527.023	332.75
527.124	122.75
527.224	275.75
527.324	119.75
527.425	218.75
527.525	54.75
527.625	144.75
527.726	181.75
527.826	256.75
527.926	170.75
528.026	244.75
528.127	112.75
528.227	162.75
528.327	278.75
528.427	203.75
528.528	182.75
528.628	241.75
528.728	171.75
528.828	184.75
528.928	249.75
529.029	218.75
529.129	187.75
529.229	226.75
529.329	232.75
529.429	269.75
529.529	306.75
529.629	291.75
529.729	190.75
529.829	319.75
529.93	232.75
530.03	252.75
530.13	188.75
530.23	219.75
530.33	341.75
530.43	178.75
530.53	229.75
530.63	236.75
530.73	101.75
530.83	80.75
530.93	183.75
531.03	135.75
531.13	233.75
531.23	191.75
531.33	191.75
531.429	219.75
531.529	372.75
531.629	226.75
531.729	112.75
531.829	145.75
531.929	172.75
532.029	178.75
532.129	157.75
532.229	209.75
532.328	175.75
532.428	157.75
532.528	148.75
532.628	117.75
532.728	176.75
532.827	143.75
532.927	234.75
533.027	124.75
533.127	306.75
533.227	249.75
533.326	188.75
533.426	135.75
533.526	315.75
533.625	289.75
533.725	447.75
533.825	275.75
533.924	117.75
534.024	55.75
534.124	103.75
534.223	218.75
534.323	567.75
534.423	204.75
534.522	234.75
534.622	101.75
534.722	147.75
534.821	248.75
534.921	124.75
535.02	79.75
535.12	239.75
535.219	303.75
535.319	215.75
535.419	228.75
535.518	196.75
535.618	181.75
535.717	266.75
535.817	184.75
535.916	34.75
536.016	201.75
536.115	178.75
536.215	137.75
536.314	133.75
536.413	124.75
536.513	142.75
536.612	96.75
536.712	98.75
536.811	184.75
536.91	79.75
537.01	91.75
537.109	213.75
537.209	126.75
537.308	104.75
537.407	139.75
537.507	133.75
537.606	104.75
537.705	205.75
537.805	176.75
537.904	51.75
538.003	170.75
538.102	301.75
538.202	171.75
538.301	223.75
538.4	247.75
538.499	161.75
538.599	175.75
538.698	414.75
538.797	126.75
538.896	218.75
538.995	195.75
539.095	176.75
539.194	339.75
539.293	167.75
539.392	187.75
539.491	113.75
539.59	167.75
539.689	342.75
539.789	240.75
539.888	93.75
539.987	99.75
540.086	145.75
540.185	182.75
540.284	224.75
540.383	210.75
540.482	63.75
540.581	167.75
540.68	190.75
540.779	173.75
540.878	182.75
540.977	296.75
541.076	165.75
541.175	192.75
541.274	449.75
541.373	229.75
541.472	197.75
541.571	148.75
541.67	1516.75
541.769	340.75
541.868	176.75
541.966	267.75
542.065	183.75
542.164	227.75
542.263	189.75
542.362	179.75
542.461	244.75
542.56	267.75
542.658	239.75
542.757	155.75
542.856	154.75
542.955	119.75
543.054	92.75
543.152	283.75
543.251	199.75
543.35	307.75
543.449	196.75
543.547	252.75
543.646	142.75
543.745	187.75
543.843	278.75
543.942	217.75
544.041	165.75
544.14	244.75
544.238	195.75
544.337	382.75
544.436	246.75
544.534	394.75
544.633	224.75
544.731	210.75
544.83	250.75
544.929	192.75
545.027	178.75
545.126	195.75
545.224	245.75
545.323	156.75
545.421	219.75
545.52	187.75
545.619	193.75
545.717	203.75
545.816	297.75
545.914	275.75
546.013	419.75
546.111	385.75
546.209	179.75
546.308	154.75
546.406	212.75
546.505	330.75
546.603	202.75
546.702	191.75
546.8	215.75
546.899	153.75
546.997	212.75
547.095	262.75
547.194	229.75
547.292	211.75
547.39	295.75
547.489	196.75
547.587	452.75
547.685	262.75
547.784	404.75
547.882	254.75
547.98	166.75
548.079	251.75
548.177	159.75
548.275	118.75
548.373	348.75
548.472	182.75
548.57	204.75
548.668	327.75
