Data from 28g_HRC06701__50__416.txt Node

Date: Thu Apr 18 02:21:21 CDT 2024
User: Estudiantes 2
Spectrometer: HR+C0670
Trigger mode: 4
Integration Time (sec): 1.000000E0
Scans to average: 1
Electric dark correction enabled: true
Nonlinearity correction enabled: false
Boxcar width: 0
XAxis mode: Wavelengths
Number of Pixels in Spectrum: 2048
>>>>>Begin Spectral Data<<<<<
407.81	-149.19
407.921	-149.19
408.032	-149.19
408.143	-93.19
408.254	-156.19
408.365	25.81
408.476	315.81
408.587	-43.19
408.699	-1.19
408.81	8.81
408.921	-52.19
409.032	-39.19
409.143	35.81
409.254	24.81
409.365	71.81
409.476	-62.19
409.587	38.81
409.698	74.81
409.809	97.81
409.92	-0.19
410.031	-42.19
410.142	40.81
410.253	66.81
410.364	52.81
410.475	44.81
410.585	537.81
410.696	646.81
410.807	596.81
410.918	572.81
411.029	691.81
411.14	605.81
411.251	545.81
411.362	654.81
411.472	643.81
411.583	640.81
411.694	713.81
411.805	610.81
411.916	591.81
412.026	700.81
412.137	610.81
412.248	566.81
412.359	582.81
412.47	621.81
412.58	548.81
412.691	639.81
412.802	649.81
412.912	619.81
413.023	579.81
413.134	605.81
413.245	676.81
413.355	601.81
413.466	585.81
413.577	599.81
413.687	721.81
413.798	543.81
413.909	697.81
414.019	582.81
414.13	609.81
414.24	653.81
414.351	616.81
414.462	799.81
414.572	695.81
414.683	666.81
414.793	574.81
414.904	972.81
415.014	623.81
415.125	546.81
415.235	611.81
415.346	777.81
415.456	764.81
415.567	649.81
415.677	679.81
415.788	642.81
415.898	582.81
416.009	616.81
416.119	659.81
416.23	603.81
416.34	582.81
416.45	664.81
416.561	1400.81
416.671	793.81
416.782	598.81
416.892	601.81
417.002	635.81
417.113	737.81
417.223	646.81
417.333	604.81
417.444	623.81
417.554	725.81
417.664	690.81
417.775	608.81
417.885	708.81
417.995	645.81
418.106	821.81
418.216	776.81
418.326	679.81
418.436	701.81
418.547	730.81
418.657	642.81
418.767	790.81
418.877	747.81
418.987	717.81
419.098	708.81
419.208	718.81
419.318	815.81
419.428	796.81
419.538	692.81
419.648	795.81
419.759	765.81
419.869	757.81
419.979	751.81
420.089	745.81
420.199	677.81
420.309	752.81
420.419	756.81
420.529	700.81
420.639	1190.81
420.749	847.81
420.859	752.81
420.969	740.81
421.079	1046.81
421.189	834.81
421.299	784.81
421.409	739.81
421.519	807.81
421.629	863.81
421.739	794.81
421.849	690.81
421.959	622.81
422.069	775.81
422.179	803.81
422.289	703.81
422.399	782.81
422.509	961.81
422.619	3404.81
422.729	1087.81
422.838	807.81
422.948	843.81
423.058	808.81
423.168	842.81
423.278	857.81
423.388	840.81
423.498	939.81
423.607	921.81
423.717	1143.81
423.827	1162.81
423.937	981.81
424.046	976.81
424.156	994.81
424.266	973.81
424.376	1075.81
424.485	1035.81
424.595	915.81
424.705	901.81
424.815	893.81
424.924	1345.81
425.034	1024.81
425.144	881.81
425.253	902.81
425.363	1040.81
425.473	968.81
425.582	871.81
425.692	950.81
425.801	841.81
425.911	1055.81
426.021	995.81
426.13	1025.81
426.24	1145.81
426.349	1012.81
426.459	1018.81
426.568	883.81
426.678	1089.81
426.787	1040.81
426.897	912.81
427.006	968.81
427.116	1029.81
427.225	935.81
427.335	1049.81
427.444	1051.81
427.554	1069.81
427.663	989.81
427.773	977.81
427.882	1058.81
427.992	921.81
428.101	1002.81
428.21	980.81
428.32	1048.81
428.429	972.81
428.539	1277.81
428.648	995.81
428.757	1060.81
428.867	1082.81
428.976	1200.81
429.085	1042.81
429.195	1056.81
429.304	1089.81
429.413	1075.81
429.523	1072.81
429.632	1164.81
429.741	1057.81
429.85	1010.81
429.96	1130.81
430.069	1062.81
430.178	1045.81
430.287	1410.81
430.397	1065.81
430.506	1028.81
430.615	1051.81
430.724	1157.81
430.833	1105.81
430.943	1090.81
431.052	1131.81
431.161	1104.81
431.27	1165.81
431.379	1215.81
431.488	1299.81
431.597	1272.81
431.706	1314.81
431.816	1213.81
431.925	1190.81
432.034	1168.81
432.143	1295.81
432.252	1212.81
432.361	1307.81
432.47	1269.81
432.579	1168.81
432.688	1175.81
432.797	1271.81
432.906	1143.81
433.015	1233.81
433.124	1609.81
433.233	1264.81
433.342	1213.81
433.451	1211.81
433.56	1247.81
433.669	1222.81
433.778	1227.81
433.886	1339.81
433.995	1253.81
434.104	1429.81
434.213	1321.81
434.322	1224.81
434.431	1404.81
434.54	1418.81
434.649	1585.81
434.757	1492.81
434.866	1449.81
434.975	1503.81
435.084	1423.81
435.193	1347.81
435.301	1612.81
435.41	1629.81
435.519	1699.81
435.628	1276.81
435.737	1156.81
435.845	1161.81
435.954	1150.81
436.063	1202.81
436.171	1119.81
436.28	1214.81
436.389	1284.81
436.498	1154.81
436.606	1223.81
436.715	1402.81
436.823	1110.81
436.932	1084.81
437.041	1135.81
437.149	1169.81
437.258	1093.81
437.367	1075.81
437.475	1117.81
437.584	1335.81
437.692	1090.81
437.801	2664.81
437.91	1213.81
438.018	1044.81
438.127	1067.81
438.235	1109.81
438.344	1033.81
438.452	1109.81
438.561	989.81
438.669	1032.81
438.778	991.81
438.886	1040.81
438.995	1013.81
439.103	1048.81
439.212	1077.81
439.32	1028.81
439.428	1004.81
439.537	1078.81
439.645	1121.81
439.754	1102.81
439.862	1131.81
439.97	1082.81
440.079	1055.81
440.187	1064.81
440.295	1210.81
440.404	1068.81
440.512	1084.81
440.62	1187.81
440.729	1135.81
440.837	1196.81
440.945	1869.81
441.054	1195.81
441.162	1172.81
441.27	1324.81
441.378	1232.81
441.487	1254.81
441.595	1698.81
441.703	1368.81
441.811	1293.81
441.92	1202.81
442.028	1204.81
442.136	1202.81
442.244	1272.81
442.352	1248.81
442.461	1109.81
442.569	1057.81
442.677	1161.81
442.785	1178.81
442.893	1187.81
443.001	1123.81
443.109	1133.81
443.217	1138.81
443.325	1118.81
443.434	1763.81
443.542	1463.81
443.65	1215.81
443.758	1414.81
443.866	1225.81
443.974	1535.81
444.082	1370.81
444.19	1379.81
444.298	1429.81
444.406	1577.81
444.514	1525.81
444.622	1550.81
444.73	1559.81
444.838	1503.81
444.946	1460.81
445.054	1356.81
445.161	1359.81
445.269	1239.81
445.377	1219.81
445.485	1248.81
445.593	1237.81
445.701	1452.81
445.809	1310.81
445.917	1245.81
446.025	1150.81
446.132	1281.81
446.24	1255.81
446.348	1212.81
446.456	1086.81
446.564	1178.81
446.671	1184.81
446.779	1133.81
446.887	1173.81
446.995	1098.81
447.102	1183.81
447.21	1174.81
447.318	1181.81
447.426	1098.81
447.533	1374.81
447.641	2472.81
447.749	1265.81
447.856	1119.81
447.964	1170.81
448.072	1239.81
448.179	1124.81
448.287	1217.81
448.395	1152.81
448.502	1088.81
448.61	1207.81
448.718	1161.81
448.825	1186.81
448.933	1100.81
449.04	1124.81
449.148	1171.81
449.256	1179.81
449.363	1250.81
449.471	1173.81
449.578	1269.81
449.686	1198.81
449.793	1275.81
449.901	1142.81
450.008	1215.81
450.116	1286.81
450.223	1190.81
450.331	1312.81
450.438	1295.81
450.546	1254.81
450.653	1355.81
450.76	1360.81
450.868	1370.81
450.975	1566.81
451.083	1420.81
451.19	1433.81
451.297	1388.81
451.405	1404.81
451.512	1361.81
451.619	1473.81
451.727	1476.81
451.834	1384.81
451.941	1414.81
452.049	1362.81
452.156	1388.81
452.263	1410.81
452.371	1328.81
452.478	1424.81
452.585	1501.81
452.692	1392.81
452.8	1436.81
452.907	1611.81
453.014	1465.81
453.121	1389.81
453.229	1473.81
453.336	1504.81
453.443	1466.81
453.55	1434.81
453.657	1444.81
453.765	1459.81
453.872	1479.81
453.979	1503.81
454.086	1418.81
454.193	1481.81
454.3	1484.81
454.407	1592.81
454.514	1649.81
454.621	1478.81
454.729	1433.81
454.836	1447.81
454.943	1583.81
455.05	1577.81
455.157	1607.81
455.264	1476.81
455.371	1547.81
455.478	1445.81
455.585	2817.81
455.692	1701.81
455.799	1630.81
455.906	1502.81
456.013	1567.81
456.12	1498.81
456.227	1537.81
456.334	1595.81
456.44	1616.81
456.547	1540.81
456.654	1524.81
456.761	1629.81
456.868	1696.81
456.975	1652.81
457.082	1606.81
457.189	1512.81
457.296	1585.81
457.402	1645.81
457.509	1521.81
457.616	1607.81
457.723	1920.81
457.83	1662.81
457.936	1687.81
458.043	2038.81
458.15	1755.81
458.257	1764.81
458.363	1782.81
458.47	1760.81
458.577	1926.81
458.684	1823.81
458.79	2062.81
458.897	2029.81
459.004	2059.81
459.11	2083.81
459.217	1970.81
459.324	2096.81
459.43	2264.81
459.537	2375.81
459.644	2235.81
459.75	2130.81
459.857	2583.81
459.964	2274.81
460.07	2364.81
460.177	2396.81
460.283	2435.81
460.39	2551.81
460.496	2513.81
460.603	2459.81
460.71	2420.81
460.816	2403.81
460.923	2367.81
461.029	2333.81
461.136	2425.81
461.242	2333.81
461.349	2305.81
461.455	2338.81
461.562	2756.81
461.668	2453.81
461.774	2420.81
461.881	2591.81
461.987	2511.81
462.094	2681.81
462.2	2627.81
462.307	2650.81
462.413	2600.81
462.519	2683.81
462.626	3077.81
462.732	2977.81
462.838	3196.81
462.945	3408.81
463.051	3288.81
463.157	3143.81
463.264	3074.81
463.37	2928.81
463.476	2847.81
463.583	2754.81
463.689	2729.81
463.795	2788.81
463.901	2841.81
464.008	2995.81
464.114	2777.81
464.22	2807.81
464.326	2779.81
464.433	2615.81
464.539	2609.81
464.645	2578.81
464.751	2715.81
464.857	2479.81
464.963	2312.81
465.07	2316.81
465.176	2156.81
465.282	2091.81
465.388	2194.81
465.494	1926.81
465.6	1942.81
465.706	1927.81
465.812	1748.81
465.918	1920.81
466.024	1803.81
466.131	1812.81
466.237	1704.81
466.343	1650.81
466.449	1639.81
466.555	1562.81
466.661	1596.81
466.767	1592.81
466.873	1599.81
466.979	1823.81
467.085	1686.81
467.191	1577.81
467.296	1576.81
467.402	1643.81
467.508	1604.81
467.614	1684.81
467.72	1549.81
467.826	1500.81
467.932	1522.81
468.038	1492.81
468.144	1504.81
468.25	1451.81
468.355	1396.81
468.461	1493.81
468.567	1397.81
468.673	1413.81
468.779	1445.81
468.885	1447.81
468.99	1394.81
469.096	1446.81
469.202	1535.81
469.308	1535.81
469.413	1589.81
469.519	1550.81
469.625	1506.81
469.731	1573.81
469.836	1568.81
469.942	1701.81
470.048	1573.81
470.153	1589.81
470.259	1544.81
470.365	1687.81
470.47	1651.81
470.576	1568.81
470.682	1485.81
470.787	1584.81
470.893	1471.81
470.999	1471.81
471.104	1460.81
471.21	1408.81
471.315	1298.81
471.421	1305.81
471.527	1579.81
471.632	1406.81
471.738	1350.81
471.843	1303.81
471.949	1382.81
472.054	1306.81
472.16	1292.81
472.265	1297.81
472.371	1145.81
472.476	1252.81
472.582	1380.81
472.687	1230.81
472.793	1174.81
472.898	1247.81
473.003	1171.81
473.109	1159.81
473.214	1210.81
473.32	1195.81
473.425	1247.81
473.53	1200.81
473.636	1229.81
473.741	1176.81
473.847	1127.81
473.952	1273.81
474.057	1228.81
474.163	1246.81
474.268	1170.81
474.373	1207.81
474.478	1140.81
474.584	1215.81
474.689	1215.81
474.794	1213.81
474.9	1395.81
475.005	1171.81
475.11	1284.81
475.215	1146.81
475.321	1256.81
475.426	1368.81
475.531	1294.81
475.636	1205.81
475.741	1154.81
475.846	1325.81
475.952	1439.81
476.057	1302.81
476.162	1292.81
476.267	1332.81
476.372	1571.81
476.477	1184.81
476.582	1343.81
476.687	1223.81
476.793	1229.81
476.898	1192.81
477.003	1356.81
477.108	1291.81
477.213	1204.81
477.318	1342.81
477.423	1375.81
477.528	1435.81
477.633	1444.81
477.738	1401.81
477.843	1334.81
477.948	1432.81
478.053	1489.81
478.158	1346.81
478.263	1456.81
478.368	1425.81
478.473	1535.81
478.578	1515.81
478.682	1496.81
478.787	1550.81
478.892	1495.81
478.997	1598.81
479.102	1534.81
479.207	1491.81
479.312	1636.81
479.417	1544.81
479.521	1457.81
479.626	1619.81
479.731	1576.81
479.836	1514.81
479.941	1699.81
480.045	1730.81
480.15	1731.81
480.255	1653.81
480.36	1595.81
480.465	1714.81
480.569	1810.81
480.674	1560.81
480.779	1521.81
480.883	1512.81
480.988	1565.81
481.093	1601.81
481.197	1485.81
481.302	1552.81
481.407	1671.81
481.511	2852.81
481.616	1615.81
481.721	1532.81
481.825	1719.81
481.93	1460.81
482.035	1504.81
482.139	1619.81
482.244	1506.81
482.348	1546.81
482.453	1554.81
482.557	1555.81
482.662	1543.81
482.767	1485.81
482.871	1563.81
482.976	1525.81
483.08	1608.81
483.185	1751.81
483.289	1561.81
483.394	1534.81
483.498	1701.81
483.603	1587.81
483.707	1623.81
483.811	1717.81
483.916	1667.81
484.02	1669.81
484.125	1799.81
484.229	1739.81
484.333	1761.81
484.438	1721.81
484.542	1695.81
484.647	1629.81
484.751	1749.81
484.855	1805.81
484.96	1753.81
485.064	1737.81
485.168	1874.81
485.273	1847.81
485.377	1833.81
485.481	2132.81
485.585	1903.81
485.69	1819.81
485.794	1858.81
485.898	1933.81
486.002	1860.81
486.107	1919.81
486.211	1933.81
486.315	1839.81
486.419	1974.81
486.524	1973.81
486.628	1845.81
486.732	1928.81
486.836	1908.81
486.94	1951.81
487.044	1919.81
487.148	1898.81
487.253	1859.81
487.357	1888.81
487.461	2105.81
487.565	1968.81
487.669	1961.81
487.773	1890.81
487.877	2037.81
487.981	1996.81
488.085	2005.81
488.189	1976.81
488.293	2058.81
488.397	2339.81
488.501	1959.81
488.605	1984.81
488.709	1859.81
488.813	1858.81
488.917	1964.81
489.021	1931.81
489.125	2189.81
489.229	1982.81
489.333	2083.81
489.437	1912.81
489.541	2008.81
489.645	1974.81
489.749	1935.81
489.853	2051.81
489.956	1978.81
490.06	1956.81
490.164	1947.81
490.268	1981.81
490.372	1949.81
490.476	1933.81
490.579	2021.81
490.683	2520.81
490.787	2032.81
490.891	1968.81
490.995	1957.81
491.098	1949.81
491.202	1922.81
491.306	2040.81
491.41	2000.81
491.513	1882.81
491.617	1989.81
491.721	2086.81
491.824	2165.81
491.928	2012.81
492.032	2241.81
492.136	1960.81
492.239	1944.81
492.343	2009.81
492.446	2368.81
492.55	2058.81
492.654	1941.81
492.757	1879.81
492.861	2033.81
492.965	2004.81
493.068	1982.81
493.172	1983.81
493.275	1987.81
493.379	1928.81
493.482	2065.81
493.586	2159.81
493.689	2203.81
493.793	1987.81
493.896	2163.81
494	2091.81
494.103	2147.81
494.207	2316.81
494.31	2417.81
494.414	2062.81
494.517	2047.81
494.621	2051.81
494.724	2039.81
494.828	1955.81
494.931	1970.81
495.034	1935.81
495.138	2128.81
495.241	1932.81
495.345	2819.81
495.448	2091.81
495.551	1932.81
495.655	1929.81
495.758	1887.81
495.861	1913.81
495.965	1929.81
496.068	1959.81
496.171	2023.81
496.274	1951.81
496.378	1938.81
496.481	2009.81
496.584	2046.81
496.687	2036.81
496.791	2002.81
496.894	2107.81
496.997	2051.81
497.1	1965.81
497.204	2025.81
497.307	2037.81
497.41	2199.81
497.513	2343.81
497.616	2169.81
497.719	2120.81
497.823	2203.81
497.926	2208.81
498.029	2411.81
498.132	2341.81
498.235	2378.81
498.338	2543.81
498.441	2653.81
498.544	2531.81
498.647	2757.81
498.75	2934.81
498.853	3059.81
498.956	3013.81
499.059	3344.81
499.163	3323.81
499.266	3507.81
499.369	3669.81
499.471	3785.81
499.574	4012.81
499.677	4336.81
499.78	4562.81
499.883	4773.81
499.986	5297.81
500.089	5397.81
500.192	5523.81
500.295	5600.81
500.398	5577.81
500.501	5351.81
500.604	5168.81
500.707	4971.81
500.809	4661.81
500.912	4448.81
501.015	4217.81
501.118	3878.81
501.221	3708.81
501.324	3444.81
501.426	3250.81
501.529	2999.81
501.632	2939.81
501.735	2691.81
501.837	2635.81
501.94	2538.81
502.043	2558.81
502.146	2435.81
502.248	2390.81
502.351	2399.81
502.454	2260.81
502.557	2194.81
502.659	2231.81
502.762	2091.81
502.865	1952.81
502.967	1954.81
503.07	2012.81
503.173	1939.81
503.275	1835.81
503.378	1916.81
503.48	1840.81
503.583	1923.81
503.686	1862.81
503.788	2120.81
503.891	1876.81
503.993	2113.81
504.096	1876.81
504.198	1891.81
504.301	1844.81
504.403	2002.81
504.506	1898.81
504.608	1794.81
504.711	1761.81
504.813	1738.81
504.916	1700.81
505.018	1702.81
505.121	1548.81
505.223	1602.81
505.326	1616.81
505.428	1628.81
505.531	1474.81
505.633	1547.81
505.735	1488.81
505.838	1420.81
505.94	1453.81
506.042	1417.81
506.145	1355.81
506.247	1502.81
506.35	1392.81
506.452	1484.81
506.554	1448.81
506.656	1516.81
506.759	1360.81
506.861	1370.81
506.963	1376.81
507.066	1409.81
507.168	1491.81
507.27	1332.81
507.372	1363.81
507.475	1312.81
507.577	1365.81
507.679	1357.81
507.781	1245.81
507.883	1302.81
507.986	1274.81
508.088	1292.81
508.19	1275.81
508.292	1290.81
508.394	1279.81
508.496	1219.81
508.598	1306.81
508.701	1349.81
508.803	1271.81
508.905	1279.81
509.007	1270.81
509.109	1319.81
509.211	1319.81
509.313	1248.81
509.415	1193.81
509.517	1237.81
509.619	1199.81
509.721	1277.81
509.823	1288.81
509.925	1381.81
510.027	1247.81
510.129	1271.81
510.231	1243.81
510.333	1228.81
510.435	1190.81
510.537	1282.81
510.639	1354.81
510.741	1231.81
510.843	1270.81
510.945	1190.81
511.047	1311.81
511.148	1304.81
511.25	1182.81
511.352	1288.81
511.454	1171.81
511.556	1285.81
511.658	1279.81
511.76	1289.81
511.861	1367.81
511.963	1219.81
512.065	1276.81
512.167	1185.81
512.268	1413.81
512.37	1284.81
512.472	1201.81
512.574	1344.81
512.676	1387.81
512.777	1161.81
512.879	1224.81
512.981	1241.81
513.082	1254.81
513.184	1254.81
513.286	1739.81
513.387	1395.81
513.489	1414.81
513.591	1337.81
513.692	1349.81
513.794	1317.81
513.896	1183.81
513.997	1306.81
514.099	1250.81
514.2	1304.81
514.302	1326.81
514.404	1237.81
514.505	1230.81
514.607	1333.81
514.708	1312.81
514.81	1350.81
514.911	1376.81
515.013	1419.81
515.114	1385.81
515.216	1363.81
515.317	1428.81
515.419	1363.81
515.52	1473.81
515.622	1484.81
515.723	1388.81
515.825	1540.81
515.926	1491.81
516.027	1474.81
516.129	1489.81
516.23	1554.81
516.332	1597.81
516.433	1587.81
516.534	1741.81
516.636	1686.81
516.737	1620.81
516.838	2710.81
516.94	1969.81
517.041	1840.81
517.142	2001.81
517.244	2103.81
517.345	2027.81
517.446	2040.81
517.547	2039.81
517.649	1974.81
517.75	2028.81
517.851	2006.81
517.952	2279.81
518.054	1985.81
518.155	2039.81
518.256	1844.81
518.357	1934.81
518.458	1772.81
518.56	1679.81
518.661	1726.81
518.762	1712.81
518.863	1802.81
518.964	1740.81
519.065	1606.81
519.166	1586.81
519.268	1569.81
519.369	1795.81
519.47	1553.81
519.571	1590.81
519.672	1504.81
519.773	1483.81
519.874	1567.81
519.975	1604.81
520.076	1489.81
520.177	1619.81
520.278	1545.81
520.379	1477.81
520.48	1353.81
520.581	1516.81
520.682	1465.81
520.783	1430.81
520.884	1580.81
520.985	1519.81
521.086	1452.81
521.187	1544.81
521.288	1487.81
521.389	1442.81
521.489	1383.81
521.59	1423.81
521.691	1404.81
521.792	1403.81
521.893	1620.81
521.994	1573.81
522.095	1532.81
522.195	1580.81
522.296	1585.81
522.397	1540.81
522.498	1508.81
522.599	1361.81
522.699	1413.81
522.8	1463.81
522.901	1581.81
523.002	1435.81
523.102	1650.81
523.203	1539.81
523.304	1616.81
523.405	1417.81
523.505	1511.81
523.606	1515.81
523.707	1473.81
523.807	1516.81
523.908	1506.81
524.009	1612.81
524.109	1486.81
524.21	1480.81
524.31	1571.81
524.411	1596.81
524.512	1680.81
524.612	1512.81
524.713	1671.81
524.813	1519.81
524.914	1734.81
525.014	6582.81
525.115	1921.81
525.216	1483.81
525.316	1484.81
525.417	1559.81
525.517	1537.81
525.618	1479.81
525.718	1495.81
525.819	1473.81
525.919	1478.81
526.019	1480.81
526.12	1622.81
526.22	1414.81
526.321	1476.81
526.421	1415.81
526.522	1505.81
526.622	1438.81
526.722	1438.81
526.823	1555.81
526.923	1526.81
527.023	1610.81
527.124	1475.81
527.224	1548.81
527.324	1376.81
527.425	1604.81
527.525	1444.81
527.625	1465.81
527.726	1504.81
527.826	1605.81
527.926	1475.81
528.026	1516.81
528.127	1495.81
528.227	1482.81
528.327	1581.81
528.427	1491.81
528.528	1496.81
528.628	1537.81
528.728	1536.81
528.828	1606.81
528.928	1611.81
529.029	1552.81
529.129	1544.81
529.229	1522.81
529.329	1524.81
529.429	1616.81
529.529	1626.81
529.629	1569.81
529.729	1492.81
529.829	1631.81
529.93	1445.81
530.03	1549.81
530.13	1512.81
530.23	1472.81
530.33	1624.81
530.43	1492.81
530.53	1468.81
530.63	1527.81
530.73	1498.81
530.83	1388.81
530.93	1439.81
531.03	1416.81
531.13	1492.81
531.23	1403.81
531.33	1564.81
531.429	1606.81
531.529	1603.81
531.629	1436.81
531.729	1391.81
531.829	1343.81
531.929	1427.81
532.029	1477.81
532.129	1406.81
532.229	1494.81
532.328	1469.81
532.428	1373.81
532.528	1394.81
532.628	1389.81
532.728	1424.81
532.827	1320.81
532.927	1488.81
533.027	1447.81
533.127	1540.81
533.227	1409.81
533.326	1452.81
533.426	1305.81
533.526	1470.81
533.625	1620.81
533.725	1696.81
533.825	1501.81
533.924	1354.81
534.024	1257.81
534.124	1327.81
534.223	1387.81
534.323	1763.81
534.423	1360.81
534.522	1324.81
534.622	1279.81
534.722	1300.81
534.821	1380.81
534.921	1380.81
535.02	1216.81
535.12	1425.81
535.219	1509.81
535.319	1400.81
535.419	1371.81
535.518	1279.81
535.618	1358.81
535.717	1356.81
535.817	1217.81
535.916	1212.81
536.016	1311.81
536.115	1254.81
536.215	1258.81
536.314	1125.81
536.413	1141.81
536.513	1210.81
536.612	1207.81
536.712	1136.81
536.811	1181.81
536.91	1171.81
537.01	1160.81
537.109	1145.81
537.209	1241.81
537.308	1144.81
537.407	1182.81
537.507	1221.81
537.606	1138.81
537.705	1256.81
537.805	1212.81
537.904	1097.81
538.003	1168.81
538.102	1217.81
538.202	1228.81
538.301	1282.81
538.4	1255.81
538.499	1205.81
538.599	1193.81
538.698	1435.81
538.797	1191.81
