Data from 28g_HRC06701__12__378.txt Node

Date: Thu Apr 18 02:20:43 CDT 2024
User: Estudiantes 2
Spectrometer: HR+C0670
Trigger mode: 4
Integration Time (sec): 1.000000E0
Scans to average: 1
Electric dark correction enabled: true
Nonlinearity correction enabled: false
Boxcar width: 0
XAxis mode: Wavelengths
Number of Pixels in Spectrum: 2048
>>>>>Begin Spectral Data<<<<<
407.81	-152.31
407.921	-152.31
408.032	-152.31
408.143	-123.31
408.254	-165.31
408.365	48.69
408.476	290.69
408.587	-11.31
408.699	-37.31
408.81	-7.31
408.921	-31.31
409.032	-46.31
409.143	35.69
409.254	52.69
409.365	77.69
409.476	-39.31
409.587	60.69
409.698	47.69
409.809	80.69
409.92	-10.31
410.031	-37.31
410.142	37.69
410.253	21.69
410.364	21.69
410.475	207.69
410.585	1249.69
410.696	1380.69
410.807	1345.69
410.918	1305.69
411.029	1516.69
411.14	1366.69
411.251	1328.69
411.362	1412.69
411.472	1467.69
411.583	1419.69
411.694	1500.69
411.805	1486.69
411.916	1395.69
412.026	1484.69
412.137	1447.69
412.248	1395.69
412.359	1413.69
412.47	1374.69
412.58	1275.69
412.691	1425.69
412.802	1441.69
412.912	1384.69
413.023	1354.69
413.134	1384.69
413.245	1507.69
413.355	1325.69
413.466	1349.69
413.577	1379.69
413.687	1407.69
413.798	1287.69
413.909	1506.69
414.019	1424.69
414.13	1386.69
414.24	1396.69
414.351	1472.69
414.462	1640.69
414.572	1519.69
414.683	1443.69
414.793	1415.69
414.904	1768.69
415.014	1445.69
415.125	1352.69
415.235	1448.69
415.346	1589.69
415.456	1546.69
415.567	1419.69
415.677	1438.69
415.788	1466.69
415.898	1412.69
416.009	1419.69
416.119	1476.69
416.23	1409.69
416.34	1415.69
416.45	1515.69
416.561	2272.69
416.671	1552.69
416.782	1435.69
416.892	1443.69
417.002	1407.69
417.113	1545.69
417.223	1507.69
417.333	1427.69
417.444	1480.69
417.554	1583.69
417.664	1587.69
417.775	1408.69
417.885	1548.69
417.995	1513.69
418.106	1690.69
418.216	1578.69
418.326	1625.69
418.436	1616.69
418.547	1681.69
418.657	1596.69
418.767	1691.69
418.877	1675.69
418.987	1712.69
419.098	1675.69
419.208	1663.69
419.318	1824.69
419.428	1691.69
419.538	1691.69
419.648	1760.69
419.759	1720.69
419.869	1750.69
419.979	1729.69
420.089	1708.69
420.199	1688.69
420.309	1745.69
420.419	1750.69
420.529	1654.69
420.639	2151.69
420.749	1837.69
420.859	1816.69
420.969	1760.69
421.079	2037.69
421.189	1804.69
421.299	1756.69
421.409	1808.69
421.519	1868.69
421.629	1896.69
421.739	1831.69
421.849	1803.69
421.959	1801.69
422.069	1881.69
422.179	1937.69
422.289	1836.69
422.399	1924.69
422.509	2072.69
422.619	5402.69
422.729	2285.69
422.838	1968.69
422.948	2072.69
423.058	1932.69
423.168	2028.69
423.278	2095.69
423.388	2095.69
423.498	2143.69
423.607	2133.69
423.717	2435.69
423.827	2409.69
423.937	2213.69
424.046	2247.69
424.156	2244.69
424.266	2168.69
424.376	2423.69
424.485	2317.69
424.595	2174.69
424.705	2274.69
424.815	2172.69
424.924	2641.69
425.034	2361.69
425.144	2178.69
425.253	2228.69
425.363	2370.69
425.473	2389.69
425.582	2159.69
425.692	2341.69
425.801	2206.69
425.911	2391.69
426.021	2331.69
426.13	2426.69
426.24	2445.69
426.349	2483.69
426.459	2402.69
426.568	2318.69
426.678	2453.69
426.787	2408.69
426.897	2346.69
427.006	2407.69
427.116	2430.69
427.225	2410.69
427.335	2478.69
427.444	2418.69
427.554	2498.69
427.663	2356.69
427.773	2416.69
427.882	2591.69
427.992	2469.69
428.101	2494.69
428.21	2506.69
428.32	2546.69
428.429	2503.69
428.539	2823.69
428.648	2567.69
428.757	2633.69
428.867	2581.69
428.976	2820.69
429.085	2624.69
429.195	2548.69
429.304	2685.69
429.413	2769.69
429.523	2722.69
429.632	2756.69
429.741	2661.69
429.85	2621.69
429.96	2789.69
430.069	2786.69
430.178	2706.69
430.287	3060.69
430.397	2823.69
430.506	2800.69
430.615	2795.69
430.724	2918.69
430.833	2876.69
430.943	2943.69
431.052	2985.69
431.161	2930.69
431.27	2966.69
431.379	2992.69
431.488	3240.69
431.597	3120.69
431.706	3247.69
431.816	3215.69
431.925	3141.69
432.034	3118.69
432.143	3265.69
432.252	3040.69
432.361	3184.69
432.47	3138.69
432.579	3084.69
432.688	3135.69
432.797	3196.69
432.906	3143.69
433.015	3212.69
433.124	3530.69
433.233	3254.69
433.342	3225.69
433.451	3240.69
433.56	3285.69
433.669	3282.69
433.778	3244.69
433.886	3372.69
433.995	3331.69
434.104	3497.69
434.213	3533.69
434.322	3473.69
434.431	3635.69
434.54	3663.69
434.649	3952.69
434.757	3697.69
434.866	3677.69
434.975	3721.69
435.084	3600.69
435.193	3512.69
435.301	3697.69
435.41	3728.69
435.519	3762.69
435.628	3268.69
435.737	3197.69
435.845	3085.69
435.954	3050.69
436.063	3153.69
436.171	3060.69
436.28	3099.69
436.389	3315.69
436.498	3096.69
436.606	3171.69
436.715	3349.69
436.823	2995.69
436.932	2972.69
437.041	2996.69
437.149	3023.69
437.258	2848.69
437.367	2853.69
437.475	2825.69
437.584	3138.69
437.692	2847.69
437.801	4554.69
437.91	2899.69
438.018	2733.69
438.127	2807.69
438.235	2910.69
438.344	2766.69
438.452	2808.69
438.561	2739.69
438.669	2782.69
438.778	2714.69
438.886	2812.69
438.995	2744.69
439.103	2748.69
439.212	2885.69
439.32	2808.69
439.428	2784.69
439.537	2858.69
439.645	2922.69
439.754	2879.69
439.862	2850.69
439.97	2958.69
440.079	2893.69
440.187	2802.69
440.295	3042.69
440.404	2914.69
440.512	2967.69
440.62	3030.69
440.729	3038.69
440.837	3078.69
440.945	3866.69
441.054	3258.69
441.162	3126.69
441.27	3412.69
441.378	3347.69
441.487	3297.69
441.595	3852.69
441.703	3515.69
441.811	3311.69
441.92	3290.69
442.028	3214.69
442.136	3178.69
442.244	3262.69
442.352	3235.69
442.461	3185.69
442.569	3067.69
442.677	3131.69
442.785	3229.69
442.893	3109.69
443.001	3171.69
443.109	3184.69
443.217	3151.69
443.325	3196.69
443.434	3823.69
443.542	3547.69
443.65	3318.69
443.758	3544.69
443.866	3367.69
443.974	3784.69
444.082	3647.69
444.19	3750.69
444.298	3746.69
444.406	3892.69
444.514	4020.69
444.622	4040.69
444.73	4006.69
444.838	3885.69
444.946	3816.69
445.054	3613.69
445.161	3568.69
445.269	3410.69
445.377	3457.69
445.485	3385.69
445.593	3360.69
445.701	3484.69
445.809	3384.69
445.917	3348.69
446.025	3188.69
446.132	3293.69
446.24	3344.69
446.348	3328.69
446.456	3134.69
446.564	3210.69
446.671	3178.69
446.779	3106.69
446.887	3184.69
446.995	3083.69
447.102	3130.69
447.21	3169.69
447.318	3165.69
447.426	3024.69
447.533	3372.69
447.641	4457.69
447.749	3187.69
447.856	3173.69
447.964	3106.69
448.072	3215.69
448.179	3026.69
448.287	3283.69
448.395	3153.69
448.502	3025.69
448.61	3046.69
448.718	3067.69
448.825	3194.69
448.933	3060.69
449.04	3140.69
449.148	3156.69
449.256	3218.69
449.363	3287.69
449.471	3211.69
449.578	3279.69
449.686	3242.69
449.793	3480.69
449.901	3221.69
450.008	3325.69
450.116	3500.69
450.223	3260.69
450.331	3447.69
450.438	3453.69
450.546	3489.69
450.653	3521.69
450.76	3558.69
450.868	3539.69
450.975	3733.69
451.083	3575.69
451.19	3636.69
451.297	3587.69
451.405	3638.69
451.512	3712.69
451.619	3768.69
451.727	3792.69
451.834	3685.69
451.941	3673.69
452.049	3668.69
452.156	3785.69
452.263	3771.69
452.371	3807.69
452.478	3809.69
452.585	3888.69
452.692	3760.69
452.8	3858.69
452.907	4070.69
453.014	3797.69
453.121	3857.69
453.229	3921.69
453.336	3967.69
453.443	4067.69
453.55	3893.69
453.657	3919.69
453.765	4027.69
453.872	3988.69
453.979	4065.69
454.086	4037.69
454.193	4014.69
454.3	4057.69
454.407	4165.69
454.514	4276.69
454.621	4114.69
454.729	4128.69
454.836	4102.69
454.943	4204.69
455.05	4216.69
455.157	4289.69
455.264	4080.69
455.371	4379.69
455.478	4304.69
455.585	4475.69
455.692	4418.69
455.799	4492.69
455.906	4350.69
456.013	4370.69
456.12	4300.69
456.227	4408.69
456.334	4512.69
456.44	4627.69
456.547	4495.69
456.654	4419.69
456.761	4565.69
456.868	4652.69
456.975	4661.69
457.082	4624.69
457.189	4554.69
457.296	4609.69
457.402	4703.69
457.509	4644.69
457.616	4789.69
457.723	5113.69
457.83	4875.69
457.936	4876.69
458.043	5373.69
458.15	5055.69
458.257	5154.69
458.363	5202.69
458.47	5400.69
458.577	5382.69
458.684	5453.69
458.79	5790.69
458.897	5719.69
459.004	5941.69
459.11	5971.69
459.217	5899.69
459.324	5991.69
459.43	6306.69
459.537	6525.69
459.644	6455.69
459.75	6547.69
459.857	7119.69
459.964	6806.69
460.07	6894.69
460.177	7047.69
460.283	7027.69
460.39	7216.69
460.496	6963.69
460.603	7165.69
460.71	6961.69
460.816	6869.69
460.923	7027.69
461.029	6957.69
461.136	6942.69
461.242	6860.69
461.349	6998.69
461.455	7070.69
461.562	7285.69
461.668	7180.69
461.774	7094.69
461.881	7421.69
461.987	7462.69
462.094	7546.69
462.2	7704.69
462.307	7825.69
462.413	7711.69
462.519	8021.69
462.626	8665.69
462.732	8700.69
462.838	9245.69
462.945	9419.69
463.051	9446.69
463.157	9087.69
463.264	8716.69
463.37	8509.69
463.476	8183.69
463.583	8043.69
463.689	7975.69
463.795	7955.69
463.901	8167.69
464.008	8357.69
464.114	8213.69
464.22	8151.69
464.326	8156.69
464.433	7729.69
464.539	7757.69
464.645	7564.69
464.751	7649.69
464.857	7277.69
464.963	6914.69
465.07	6760.69
465.176	6512.69
465.282	6227.69
465.388	6277.69
465.494	5887.69
465.6	5842.69
465.706	5703.69
465.812	5589.69
465.918	5662.69
466.024	5445.69
466.131	5452.69
466.237	5349.69
466.343	5177.69
466.449	5097.69
466.555	5028.69
466.661	4891.69
466.767	5055.69
466.873	4851.69
466.979	5094.69
467.085	4995.69
467.191	5016.69
467.296	4844.69
467.402	4925.69
467.508	4889.69
467.614	4929.69
467.72	4699.69
467.826	4575.69
467.932	4616.69
468.038	4475.69
468.144	4564.69
468.25	4434.69
468.355	4459.69
468.461	4513.69
468.567	4394.69
468.673	4493.69
468.779	4457.69
468.885	4420.69
468.99	4283.69
469.096	4476.69
469.202	4646.69
469.308	4525.69
469.413	4670.69
469.519	4614.69
469.625	4592.69
469.731	4620.69
469.836	4607.69
469.942	4802.69
470.048	4688.69
470.153	4712.69
470.259	4760.69
470.365	4943.69
470.47	4821.69
470.576	4616.69
470.682	4599.69
470.787	4535.69
470.893	4457.69
470.999	4523.69
471.104	4451.69
471.21	4236.69
471.315	4113.69
471.421	4139.69
471.527	4392.69
471.632	4242.69
471.738	4096.69
471.843	4059.69
471.949	4095.69
472.054	4117.69
472.16	3862.69
472.265	3947.69
472.371	3943.69
472.476	3900.69
472.582	3967.69
472.687	3836.69
472.793	3845.69
472.898	3863.69
473.003	3770.69
473.109	3743.69
473.214	3753.69
473.32	3865.69
473.425	3783.69
473.53	3797.69
473.636	3746.69
473.741	3734.69
473.847	3738.69
473.952	3767.69
474.057	3802.69
474.163	3840.69
474.268	3753.69
474.373	3875.69
474.478	3692.69
474.584	3679.69
474.689	3883.69
474.794	3787.69
474.9	4026.69
475.005	3809.69
475.11	3909.69
475.215	3752.69
475.321	3796.69
475.426	3970.69
475.531	3913.69
475.636	3823.69
475.741	3806.69
475.846	3977.69
475.952	4068.69
476.057	3999.69
476.162	3980.69
476.267	4012.69
476.372	4307.69
476.477	3917.69
476.582	4064.69
476.687	4118.69
476.793	4007.69
476.898	3952.69
477.003	4108.69
477.108	4065.69
477.213	4068.69
477.318	4136.69
477.423	4345.69
477.528	4450.69
477.633	4476.69
477.738	4473.69
477.843	4381.69
477.948	4570.69
478.053	4577.69
478.158	4547.69
478.263	4710.69
478.368	4646.69
478.473	4819.69
478.578	4777.69
478.682	4764.69
478.787	4952.69
478.892	4803.69
478.997	4991.69
479.102	4882.69
479.207	4909.69
479.312	4958.69
479.417	5065.69
479.521	4906.69
479.626	5066.69
479.731	5061.69
479.836	5066.69
479.941	5380.69
480.045	5339.69
480.15	5504.69
480.255	5480.69
480.36	5407.69
480.465	5446.69
480.569	5648.69
480.674	5258.69
480.779	5248.69
480.883	5159.69
480.988	5206.69
481.093	5188.69
481.197	5207.69
481.302	5118.69
481.407	5186.69
481.511	7228.69
481.616	5196.69
481.721	5147.69
481.825	5306.69
481.93	5073.69
482.035	5130.69
482.139	5168.69
482.244	5248.69
482.348	5254.69
482.453	5335.69
482.557	5380.69
482.662	5254.69
482.767	5239.69
482.871	5469.69
482.976	5510.69
483.08	5562.69
483.185	5681.69
483.289	5597.69
483.394	5574.69
483.498	5793.69
483.603	5673.69
483.707	5743.69
483.811	5890.69
483.916	5923.69
484.02	5918.69
484.125	6016.69
484.229	6130.69
484.333	6258.69
484.438	5991.69
484.542	6194.69
484.647	6363.69
484.751	6256.69
484.855	6402.69
484.96	6370.69
485.064	6471.69
485.168	6646.69
485.273	6625.69
485.377	6543.69
485.481	6897.69
485.585	6688.69
485.69	6663.69
485.794	6779.69
485.898	6844.69
486.002	6742.69
486.107	6733.69
486.211	6820.69
486.315	6850.69
486.419	6883.69
486.524	6844.69
486.628	6887.69
486.732	6800.69
486.836	6857.69
486.94	7050.69
487.044	6939.69
487.148	6886.69
487.253	6905.69
487.357	7021.69
487.461	7012.69
487.565	6948.69
487.669	6859.69
487.773	6870.69
487.877	6902.69
487.981	7068.69
488.085	6976.69
488.189	6826.69
488.293	7048.69
488.397	7318.69
488.501	6881.69
488.605	6899.69
488.709	6866.69
488.813	6986.69
488.917	7020.69
489.021	6882.69
489.125	7052.69
489.229	6897.69
489.333	7085.69
489.437	7006.69
489.541	6994.69
489.645	6959.69
489.749	6972.69
489.853	6968.69
489.956	6947.69
490.06	6996.69
490.164	6959.69
490.268	6823.69
490.372	6975.69
490.476	6907.69
490.579	6800.69
490.683	7698.69
490.787	7076.69
490.891	6879.69
490.995	6999.69
491.098	6902.69
491.202	6946.69
491.306	6885.69
491.41	6933.69
491.513	6678.69
491.617	6934.69
491.721	7092.69
491.824	7118.69
491.928	6863.69
492.032	7208.69
492.136	6897.69
492.239	6865.69
492.343	7032.69
492.446	7436.69
492.55	6987.69
492.654	6864.69
492.757	6850.69
492.861	6923.69
492.965	6881.69
493.068	7063.69
493.172	6909.69
493.275	6936.69
493.379	6958.69
493.482	6985.69
493.586	7114.69
493.689	7260.69
493.793	7053.69
493.896	7050.69
494	7105.69
494.103	7117.69
494.207	7240.69
494.31	7410.69
494.414	7099.69
494.517	7027.69
494.621	6853.69
494.724	6986.69
494.828	6786.69
494.931	6850.69
495.034	7002.69
495.138	7119.69
495.241	6776.69
495.345	7640.69
495.448	6998.69
495.551	6754.69
495.655	6841.69
495.758	6825.69
495.861	6781.69
495.965	6958.69
496.068	6987.69
496.171	6954.69
496.274	6840.69
496.378	6970.69
496.481	6996.69
496.584	6986.69
496.687	7167.69
496.791	7133.69
496.894	7145.69
496.997	7229.69
497.1	7199.69
497.204	7280.69
497.307	7331.69
497.41	7646.69
497.513	7824.69
497.616	7555.69
497.719	7642.69
497.823	7714.69
497.926	7973.69
498.029	8063.69
498.132	8169.69
498.235	8531.69
498.338	8862.69
498.441	9029.69
498.544	9011.69
498.647	9493.69
498.75	9996.69
498.853	10279.69
498.956	10407.69
499.059	11057.69
499.163	11067.69
499.266	11804.69
499.369	12276.69
499.471	12677.69
499.574	13309.69
499.677	13882.69
499.78	14573.69
499.883	14573.69
499.986	14573.69
500.089	14573.69
500.192	14573.69
500.295	14573.69
500.398	14573.69
500.501	14573.69
500.604	14573.69
500.707	14573.69
500.809	14573.69
500.912	13987.69
501.015	13414.69
501.118	12552.69
501.221	11841.69
501.324	11237.69
501.426	10991.69
501.529	10196.69
501.632	9846.69
501.735	9498.69
501.837	9182.69
501.94	8924.69
502.043	8622.69
502.146	8532.69
502.248	8215.69
502.351	8119.69
502.454	8018.69
502.557	7666.69
502.659	7634.69
502.762	7319.69
502.865	7101.69
502.967	7033.69
503.07	7074.69
503.173	6765.69
503.275	6697.69
503.378	6678.69
503.48	6497.69
503.583	6544.69
503.686	6470.69
503.788	6849.69
503.891	6519.69
503.993	6760.69
504.096	6532.69
504.198	6649.69
504.301	6629.69
504.403	6736.69
504.506	6457.69
504.608	6367.69
504.711	6199.69
504.813	6087.69
504.916	5814.69
505.018	5737.69
505.121	5548.69
505.223	5533.69
505.326	5416.69
505.428	5449.69
505.531	5241.69
505.633	5195.69
505.735	5071.69
505.838	5046.69
505.94	5014.69
506.042	4942.69
506.145	4940.69
506.247	5047.69
506.35	4903.69
506.452	4864.69
506.554	4939.69
506.656	4920.69
506.759	4855.69
506.861	4792.69
506.963	4761.69
507.066	4854.69
507.168	4858.69
507.27	4611.69
507.372	4748.69
507.475	4724.69
507.577	4702.69
507.679	4521.69
507.781	4620.69
507.883	4544.69
507.986	4490.69
508.088	4584.69
508.19	4471.69
508.292	4542.69
508.394	4503.69
508.496	4335.69
508.598	4503.69
508.701	4455.69
508.803	4486.69
508.905	4327.69
509.007	4445.69
509.109	4432.69
509.211	4416.69
509.313	4298.69
509.415	4424.69
509.517	4326.69
509.619	4278.69
509.721	4414.69
509.823	4309.69
509.925	4481.69
510.027	4363.69
510.129	4263.69
510.231	4352.69
510.333	4298.69
510.435	4260.69
510.537	4363.69
510.639	4425.69
510.741	4343.69
510.843	4346.69
510.945	4281.69
511.047	4433.69
511.148	4372.69
511.25	4230.69
511.352	4312.69
511.454	4247.69
511.556	4377.69
511.658	4269.69
511.76	4467.69
511.861	4442.69
511.963	4246.69
512.065	4309.69
512.167	4263.69
512.268	4503.69
512.37	4361.69
512.472	4294.69
512.574	4348.69
512.676	4491.69
512.777	4390.69
512.879	4362.69
512.981	4348.69
513.082	4385.69
513.184	4403.69
513.286	4894.69
513.387	4468.69
513.489	4608.69
513.591	4518.69
513.692	4497.69
513.794	4559.69
513.896	4337.69
513.997	4515.69
514.099	4478.69
514.2	4551.69
514.302	4549.69
514.404	4568.69
514.505	4510.69
514.607	4769.69
514.708	4691.69
514.81	4705.69
514.911	4822.69
515.013	4866.69
515.114	4926.69
515.216	4771.69
515.317	4915.69
515.419	4909.69
515.52	4990.69
515.622	4941.69
515.723	5016.69
515.825	5252.69
515.926	5207.69
516.027	5207.69
516.129	5327.69
516.23	5472.69
516.332	5523.69
516.433	5606.69
516.534	5715.69
516.636	5670.69
516.737	5846.69
516.838	7233.69
516.94	6346.69
517.041	6497.69
517.142	6594.69
517.244	6636.69
517.345	6742.69
517.446	6859.69
517.547	6906.69
517.649	6811.69
517.75	6859.69
517.851	6762.69
517.952	6963.69
518.054	6661.69
518.155	6721.69
518.256	6395.69
518.357	6433.69
518.458	6047.69
518.56	5991.69
518.661	6074.69
518.762	5887.69
518.863	5941.69
518.964	5894.69
519.065	5665.69
519.166	5630.69
519.268	5478.69
519.369	5842.69
519.47	5335.69
519.571	5495.69
519.672	5452.69
519.773	5365.69
519.874	5369.69
519.975	5382.69
520.076	5204.69
520.177	5419.69
520.278	5361.69
520.379	5371.69
520.48	5175.69
520.581	5122.69
520.682	5283.69
520.783	5211.69
520.884	5240.69
520.985	5311.69
521.086	5175.69
521.187	5234.69
521.288	5241.69
521.389	5236.69
521.489	5074.69
521.59	5069.69
521.691	5169.69
521.792	5071.69
521.893	5244.69
521.994	5289.69
522.095	5116.69
522.195	5160.69
522.296	5276.69
522.397	5109.69
522.498	5153.69
522.599	5142.69
522.699	5129.69
522.8	4984.69
522.901	5170.69
523.002	5104.69
523.102	5376.69
523.203	5095.69
523.304	5317.69
523.405	5132.69
523.505	5137.69
523.606	5196.69
523.707	5088.69
523.807	5127.69
523.908	5211.69
524.009	5225.69
524.109	5036.69
524.21	5059.69
524.31	5202.69
524.411	5219.69
524.512	5257.69
524.612	5313.69
524.713	5305.69
524.813	5200.69
524.914	5551.69
525.014	10235.69
525.115	5536.69
525.216	5201.69
525.316	5185.69
525.417	5182.69
525.517	5170.69
525.618	5297.69
525.718	5124.69
525.819	5147.69
525.919	5242.69
526.019	5131.69
526.12	5254.69
526.22	5218.69
526.321	5120.69
526.421	5190.69
526.522	5174.69
526.622	5135.69
526.722	5205.69
526.823	5224.69
526.923	5249.69
527.023	5369.69
527.124	5173.69
527.224	5307.69
527.324	5154.69
527.425	5289.69
527.525	5228.69
527.625	5163.69
527.726	5246.69
527.826	5334.69
527.926	5211.69
528.026	5270.69
528.127	5209.69
528.227	5220.69
528.327	5241.69
528.427	5157.69
528.528	5240.69
528.628	5243.69
528.728	5296.69
528.828	5321.69
528.928	5296.69
529.029	5189.69
529.129	5301.69
529.229	5213.69
529.329	5260.69
529.429	5348.69
529.529	5351.69
529.629	5260.69
529.729	5172.69
529.829	5381.69
529.93	5206.69
530.03	5287.69
530.13	5223.69
530.23	5195.69
530.33	5338.69
530.43	5265.69
530.53	5200.69
530.63	5263.69
530.73	5208.69
530.83	5171.69
530.93	5085.69
531.03	5064.69
531.13	5225.69
531.23	5111.69
531.33	5177.69
531.429	5232.69
531.529	5319.69
531.629	5156.69
531.729	5081.69
531.829	5146.69
531.929	5051.69
532.029	5119.69
532.129	5079.69
532.229	5167.69
532.328	4993.69
532.428	5154.69
532.528	5026.69
532.628	4978.69
532.728	5074.69
532.827	4936.69
532.927	5120.69
533.027	5010.69
533.127	5025.69
533.227	5069.69
533.326	5005.69
533.426	4879.69
533.526	5042.69
533.625	5094.69
533.725	5314.69
533.825	5070.69
533.924	4922.69
534.024	4788.69
534.124	4819.69
534.223	4895.69
534.323	5270.69
534.423	4929.69
534.522	4838.69
534.622	4732.69
534.722	4738.69
534.821	4802.69
534.921	4649.69
535.02	4659.69
535.12	4728.69
535.219	4824.69
535.319	4828.69
535.419	4709.69
535.518	4540.69
535.618	4691.69
535.717	4719.69
535.817	4502.69
535.916	4365.69
536.016	4574.69
536.115	4476.69
536.215	4479.69
536.314	4402.69
536.413	4310.69
536.513	4301.69
536.612	4377.69
536.712	4261.69
536.811	4429.69
536.91	4294.69
537.01	4252.69
537.109	4383.69
537.209	4329.69
537.308	4339.69
537.407	4323.69
537.507	4259.69
537.606	4210.69
537.705	4363.69
