Data from 28g_HRC06701__16__382.txt Node

Date: Thu Apr 18 02:20:47 CDT 2024
User: Estudiantes 2
Spectrometer: HR+C0670
Trigger mode: 4
Integration Time (sec): 1.000000E0
Scans to average: 1
Electric dark correction enabled: true
Nonlinearity correction enabled: false
Boxcar width: 0
XAxis mode: Wavelengths
Number of Pixels in Spectrum: 2048
>>>>>Begin Spectral Data<<<<<
407.81	-150.56
407.921	-150.56
408.032	-150.56
408.143	-150.56
408.254	-104.56
408.365	38.44
408.476	244.44
408.587	-3.56
408.699	8.44
408.81	-51.56
408.921	-76.56
409.032	-4.56
409.143	39.44
409.254	26.44
409.365	132.44
409.476	-34.56
409.587	-7.56
409.698	94.44
409.809	82.44
409.92	-72.56
410.031	-78.56
410.142	76.44
410.253	10.44
410.364	-5.56
410.475	156.44
410.585	855.44
410.696	967.44
410.807	1006.44
410.918	912.44
411.029	958.44
411.14	993.44
411.251	938.44
411.362	1026.44
411.472	1055.44
411.583	1018.44
411.694	1042.44
411.805	990.44
411.916	1041.44
412.026	1146.44
412.137	980.44
412.248	954.44
412.359	967.44
412.47	896.44
412.58	943.44
412.691	970.44
412.802	940.44
412.912	946.44
413.023	969.44
413.134	937.44
413.245	1034.44
413.355	1001.44
413.466	938.44
413.577	890.44
413.687	1078.44
413.798	807.44
413.909	963.44
414.019	982.44
414.13	1008.44
414.24	885.44
414.351	1077.44
414.462	1214.44
414.572	1085.44
414.683	1046.44
414.793	991.44
414.904	1283.44
415.014	985.44
415.125	980.44
415.235	1040.44
415.346	1109.44
415.456	1131.44
415.567	985.44
415.677	928.44
415.788	1009.44
415.898	954.44
416.009	902.44
416.119	962.44
416.23	998.44
416.34	914.44
416.45	1016.44
416.561	1826.44
416.671	1094.44
416.782	894.44
416.892	961.44
417.002	1040.44
417.113	1003.44
417.223	1012.44
417.333	1060.44
417.444	980.44
417.554	1094.44
417.664	1086.44
417.775	987.44
417.885	1039.44
417.995	1091.44
418.106	1171.44
418.216	1065.44
418.326	1106.44
418.436	1096.44
418.547	1115.44
418.657	1071.44
418.767	1282.44
418.877	1131.44
418.987	1121.44
419.098	1186.44
419.208	1151.44
419.318	1190.44
419.428	1267.44
419.538	1079.44
419.648	1178.44
419.759	1165.44
419.869	1161.44
419.979	1083.44
420.089	1127.44
420.199	1092.44
420.309	1141.44
420.419	1185.44
420.529	1193.44
420.639	1615.44
420.749	1186.44
420.859	1290.44
420.969	1205.44
421.079	1457.44
421.189	1288.44
421.299	1243.44
421.409	1124.44
421.519	1289.44
421.629	1335.44
421.739	1192.44
421.849	1191.44
421.959	1213.44
422.069	1238.44
422.179	1241.44
422.289	1278.44
422.399	1282.44
422.509	1312.44
422.619	4860.44
422.729	1675.44
422.838	1219.44
422.948	1365.44
423.058	1346.44
423.168	1397.44
423.278	1351.44
423.388	1507.44
423.498	1450.44
423.607	1434.44
423.717	1768.44
423.827	1695.44
423.937	1456.44
424.046	1553.44
424.156	1592.44
424.266	1418.44
424.376	1625.44
424.485	1660.44
424.595	1383.44
424.705	1427.44
424.815	1507.44
424.924	1931.44
425.034	1553.44
425.144	1385.44
425.253	1498.44
425.363	1468.44
425.473	1525.44
425.582	1455.44
425.692	1428.44
425.801	1402.44
425.911	1658.44
426.021	1450.44
426.13	1604.44
426.24	1776.44
426.349	1621.44
426.459	1521.44
426.568	1484.44
426.678	1616.44
426.787	1495.44
426.897	1528.44
427.006	1550.44
427.116	1552.44
427.225	1526.44
427.335	1645.44
427.444	1523.44
427.554	1562.44
427.663	1582.44
427.773	1570.44
427.882	1663.44
427.992	1555.44
428.101	1568.44
428.21	1485.44
428.32	1625.44
428.429	1522.44
428.539	1790.44
428.648	1559.44
428.757	1753.44
428.867	1645.44
428.976	1801.44
429.085	1718.44
429.195	1629.44
429.304	1666.44
429.413	1677.44
429.523	1734.44
429.632	1703.44
429.741	1738.44
429.85	1698.44
429.96	1718.44
430.069	1674.44
430.178	1745.44
430.287	2061.44
430.397	1737.44
430.506	1766.44
430.615	1736.44
430.724	1762.44
430.833	1783.44
430.943	1792.44
431.052	1815.44
431.161	1784.44
431.27	1840.44
431.379	1789.44
431.488	2077.44
431.597	1999.44
431.706	2029.44
431.816	1976.44
431.925	1979.44
432.034	1852.44
432.143	1965.44
432.252	1938.44
432.361	2061.44
432.47	1916.44
432.579	1931.44
432.688	1927.44
432.797	1968.44
432.906	1860.44
433.015	2034.44
433.124	2325.44
433.233	2029.44
433.342	2090.44
433.451	2032.44
433.56	2006.44
433.669	2012.44
433.778	2010.44
433.886	2066.44
433.995	2069.44
434.104	2244.44
434.213	2091.44
434.322	2104.44
434.431	2380.44
434.54	2319.44
434.649	2455.44
434.757	2397.44
434.866	2250.44
434.975	2319.44
435.084	2271.44
435.193	2186.44
435.301	2362.44
435.41	2388.44
435.519	2507.44
435.628	2018.44
435.737	1968.44
435.845	1886.44
435.954	1829.44
436.063	1848.44
436.171	1931.44
436.28	1885.44
436.389	2001.44
436.498	1946.44
436.606	1898.44
436.715	2049.44
436.823	1858.44
436.932	1870.44
437.041	1797.44
437.149	1799.44
437.258	1818.44
437.367	1756.44
437.475	1751.44
437.584	1991.44
437.692	1775.44
437.801	3345.44
437.91	1895.44
438.018	1686.44
438.127	1679.44
438.235	1799.44
438.344	1784.44
438.452	1742.44
438.561	1669.44
438.669	1700.44
438.778	1638.44
438.886	1712.44
438.995	1717.44
439.103	1698.44
439.212	1694.44
439.32	1720.44
439.428	1702.44
439.537	1731.44
439.645	1828.44
439.754	1825.44
439.862	1741.44
439.97	1808.44
440.079	1842.44
440.187	1672.44
440.295	1901.44
440.404	1836.44
440.512	1848.44
440.62	1853.44
440.729	1882.44
440.837	1922.44
440.945	2575.44
441.054	2050.44
441.162	1999.44
441.27	2139.44
441.378	2081.44
441.487	2114.44
441.595	2421.44
441.703	2174.44
441.811	2114.44
441.92	2009.44
442.028	1891.44
442.136	2014.44
442.244	2047.44
442.352	1977.44
442.461	1890.44
442.569	1897.44
442.677	1896.44
442.785	1959.44
442.893	2002.44
443.001	1906.44
443.109	1889.44
443.217	1958.44
443.325	1934.44
443.434	2536.44
443.542	2235.44
443.65	2026.44
443.758	2219.44
443.866	2070.44
443.974	2473.44
444.082	2183.44
444.19	2255.44
444.298	2435.44
444.406	2445.44
444.514	2541.44
444.622	2619.44
444.73	2564.44
444.838	2430.44
444.946	2390.44
445.054	2250.44
445.161	2091.44
445.269	2134.44
445.377	2128.44
445.485	2114.44
445.593	2109.44
445.701	2249.44
445.809	1981.44
445.917	2009.44
446.025	1923.44
446.132	1988.44
446.24	1983.44
446.348	1935.44
446.456	1842.44
446.564	1870.44
446.671	1929.44
446.779	1934.44
446.887	1847.44
446.995	1846.44
447.102	1966.44
447.21	1866.44
447.318	1870.44
447.426	1805.44
447.533	2167.44
447.641	3126.44
447.749	2025.44
447.856	1794.44
447.964	1882.44
448.072	1922.44
448.179	1856.44
448.287	1853.44
448.395	1869.44
448.502	1840.44
448.61	1888.44
448.718	1791.44
448.825	1920.44
448.933	1785.44
449.04	1743.44
449.148	1923.44
449.256	1911.44
449.363	1922.44
449.471	1872.44
449.578	2034.44
449.686	1849.44
449.793	2041.44
449.901	2007.44
450.008	1984.44
450.116	1967.44
450.223	1997.44
450.331	2055.44
450.438	2113.44
450.546	2099.44
450.653	2155.44
450.76	2116.44
450.868	2218.44
450.975	2413.44
451.083	2147.44
451.19	2299.44
451.297	2185.44
451.405	2173.44
451.512	2167.44
451.619	2393.44
451.727	2325.44
451.834	2203.44
451.941	2228.44
452.049	2219.44
452.156	2236.44
452.263	2314.44
452.371	2350.44
452.478	2235.44
452.585	2369.44
452.692	2260.44
452.8	2288.44
452.907	2431.44
453.014	2409.44
453.121	2299.44
453.229	2338.44
453.336	2376.44
453.443	2467.44
453.55	2246.44
453.657	2315.44
453.765	2510.44
453.872	2325.44
453.979	2479.44
454.086	2435.44
454.193	2393.44
454.3	2370.44
454.407	2522.44
454.514	2514.44
454.621	2389.44
454.729	2384.44
454.836	2430.44
454.943	2471.44
455.05	2513.44
455.157	2629.44
455.264	2370.44
455.371	2490.44
455.478	2484.44
455.585	2746.44
455.692	2599.44
455.799	2666.44
455.906	2577.44
456.013	2439.44
456.12	2500.44
456.227	2558.44
456.334	2546.44
456.44	2661.44
456.547	2634.44
456.654	2470.44
456.761	2611.44
456.868	2716.44
456.975	2673.44
457.082	2614.44
457.189	2594.44
457.296	2699.44
457.402	2651.44
457.509	2668.44
457.616	2812.44
457.723	2931.44
457.83	2822.44
457.936	2790.44
458.043	3145.44
458.15	2899.44
458.257	3000.44
458.363	2935.44
458.47	3032.44
458.577	3153.44
458.684	3091.44
458.79	3232.44
458.897	3323.44
459.004	3469.44
459.11	3345.44
459.217	3455.44
459.324	3591.44
459.43	3724.44
459.537	3918.44
459.644	3711.44
459.75	3715.44
459.857	4205.44
459.964	4027.44
460.07	4028.44
460.177	4000.44
460.283	4140.44
460.39	4277.44
460.496	4096.44
460.603	4207.44
460.71	4118.44
460.816	4096.44
460.923	4042.44
461.029	4121.44
461.136	4065.44
461.242	4016.44
461.349	4060.44
461.455	3993.44
461.562	4356.44
461.668	4172.44
461.774	4204.44
461.881	4334.44
461.987	4345.44
462.094	4559.44
462.2	4518.44
462.307	4570.44
462.413	4551.44
462.519	4601.44
462.626	5052.44
462.732	5091.44
462.838	5484.44
462.945	5767.44
463.051	5670.44
463.157	5514.44
463.264	5178.44
463.37	4915.44
463.476	4875.44
463.583	4677.44
463.689	4722.44
463.795	4791.44
463.901	4775.44
464.008	5013.44
464.114	4931.44
464.22	4779.44
464.326	4734.44
464.433	4514.44
464.539	4478.44
464.645	4314.44
464.751	4488.44
464.857	4254.44
464.963	3879.44
465.07	3797.44
465.176	3703.44
465.282	3507.44
465.388	3455.44
465.494	3359.44
465.6	3244.44
465.706	3099.44
465.812	3067.44
465.918	3260.44
466.024	3082.44
466.131	3126.44
466.237	3034.44
466.343	2782.44
466.449	2818.44
466.555	2846.44
466.661	2741.44
466.767	2680.44
466.873	2777.44
466.979	2902.44
467.085	2746.44
467.191	2836.44
467.296	2707.44
467.402	2632.44
467.508	2751.44
467.614	2907.44
467.72	2571.44
467.826	2537.44
467.932	2575.44
468.038	2501.44
468.144	2506.44
468.25	2507.44
468.355	2472.44
468.461	2513.44
468.567	2385.44
468.673	2463.44
468.779	2467.44
468.885	2486.44
468.99	2428.44
469.096	2477.44
469.202	2566.44
469.308	2537.44
469.413	2546.44
469.519	2569.44
469.625	2558.44
469.731	2622.44
469.836	2557.44
469.942	2733.44
470.048	2670.44
470.153	2614.44
470.259	2585.44
470.365	2822.44
470.47	2678.44
470.576	2627.44
470.682	2576.44
470.787	2466.44
470.893	2466.44
470.999	2445.44
471.104	2411.44
471.21	2264.44
471.315	2251.44
471.421	2290.44
471.527	2464.44
471.632	2354.44
471.738	2327.44
471.843	2111.44
471.949	2272.44
472.054	2203.44
472.16	2037.44
472.265	2141.44
472.371	2104.44
472.476	2225.44
472.582	2173.44
472.687	2076.44
472.793	2045.44
472.898	2072.44
473.003	2046.44
473.109	2071.44
473.214	1942.44
473.32	1954.44
473.425	2094.44
473.53	2061.44
473.636	2030.44
473.741	1948.44
473.847	1932.44
473.952	2002.44
474.057	2000.44
474.163	2112.44
474.268	1921.44
474.373	2115.44
474.478	2001.44
474.584	1866.44
474.689	2015.44
474.794	2060.44
474.9	2275.44
475.005	1926.44
475.11	2231.44
475.215	1975.44
475.321	2012.44
475.426	2181.44
475.531	2190.44
475.636	2039.44
475.741	1961.44
475.846	2178.44
475.952	2268.44
476.057	2098.44
476.162	2204.44
476.267	2211.44
476.372	2380.44
476.477	2069.44
476.582	2179.44
476.687	2021.44
476.793	2111.44
476.898	2090.44
477.003	2066.44
477.108	2163.44
477.213	2137.44
477.318	2202.44
477.423	2304.44
477.528	2428.44
477.633	2429.44
477.738	2355.44
477.843	2346.44
477.948	2427.44
478.053	2372.44
478.158	2394.44
478.263	2505.44
478.368	2499.44
478.473	2580.44
478.578	2663.44
478.682	2504.44
478.787	2649.44
478.892	2634.44
478.997	2636.44
479.102	2479.44
479.207	2487.44
479.312	2681.44
479.417	2550.44
479.521	2544.44
479.626	2802.44
479.731	2643.44
479.836	2649.44
479.941	2887.44
480.045	2877.44
480.15	2901.44
480.255	2921.44
480.36	2810.44
480.465	2871.44
480.569	3036.44
480.674	2808.44
480.779	2606.44
480.883	2678.44
480.988	2696.44
481.093	2647.44
481.197	2601.44
481.302	2616.44
481.407	2566.44
481.511	4613.44
481.616	2737.44
481.721	2541.44
481.825	2711.44
481.93	2546.44
482.035	2597.44
482.139	2722.44
482.244	2613.44
482.348	2622.44
482.453	2646.44
482.557	2697.44
482.662	2753.44
482.767	2593.44
482.871	2648.44
482.976	2736.44
483.08	2694.44
483.185	2806.44
483.289	2738.44
483.394	2718.44
483.498	2743.44
483.603	2680.44
483.707	2865.44
483.811	2865.44
483.916	2943.44
484.02	2985.44
484.125	2956.44
484.229	2942.44
484.333	3128.44
484.438	2947.44
484.542	2967.44
484.647	2963.44
484.751	3059.44
484.855	3035.44
484.96	3061.44
485.064	3188.44
485.168	3132.44
485.273	3191.44
485.377	3201.44
485.481	3444.44
485.585	3222.44
485.69	3313.44
485.794	3335.44
485.898	3315.44
486.002	3291.44
486.107	3385.44
486.211	3336.44
486.315	3255.44
486.419	3382.44
486.524	3270.44
486.628	3302.44
486.732	3300.44
486.836	3198.44
486.94	3449.44
487.044	3359.44
487.148	3351.44
487.253	3266.44
487.357	3389.44
487.461	3526.44
487.565	3267.44
487.669	3289.44
487.773	3390.44
487.877	3381.44
487.981	3416.44
488.085	3396.44
488.189	3327.44
488.293	3409.44
488.397	3862.44
488.501	3398.44
488.605	3279.44
488.709	3319.44
488.813	3358.44
488.917	3296.44
489.021	3334.44
489.125	3634.44
489.229	3354.44
489.333	3569.44
489.437	3403.44
489.541	3339.44
489.645	3323.44
489.749	3433.44
489.853	3422.44
489.956	3318.44
490.06	3436.44
490.164	3419.44
490.268	3342.44
490.372	3414.44
490.476	3440.44
490.579	3383.44
490.683	4055.44
490.787	3551.44
490.891	3270.44
490.995	3440.44
491.098	3448.44
491.202	3345.44
491.306	3412.44
491.41	3387.44
491.513	3369.44
491.617	3374.44
491.721	3601.44
491.824	3619.44
491.928	3407.44
492.032	3629.44
492.136	3401.44
492.239	3311.44
492.343	3435.44
492.446	3928.44
492.55	3512.44
492.654	3333.44
492.757	3346.44
492.861	3547.44
492.965	3440.44
493.068	3519.44
493.172	3478.44
493.275	3425.44
493.379	3428.44
493.482	3655.44
493.586	3607.44
493.689	3709.44
493.793	3464.44
493.896	3587.44
494	3585.44
494.103	3654.44
494.207	3793.44
494.31	3879.44
494.414	3553.44
494.517	3581.44
494.621	3400.44
494.724	3425.44
494.828	3530.44
494.931	3343.44
495.034	3350.44
495.138	3540.44
495.241	3326.44
495.345	4227.44
495.448	3557.44
495.551	3465.44
495.655	3335.44
495.758	3356.44
495.861	3389.44
495.965	3427.44
496.068	3471.44
496.171	3539.44
496.274	3475.44
496.378	3523.44
496.481	3562.44
496.584	3563.44
496.687	3579.44
496.791	3587.44
496.894	3647.44
496.997	3552.44
497.1	3602.44
497.204	3707.44
497.307	3508.44
497.41	3868.44
497.513	4081.44
497.616	3836.44
497.719	3847.44
497.823	3920.44
497.926	4073.44
498.029	4096.44
498.132	4239.44
498.235	4387.44
498.338	4443.44
498.441	4636.44
498.544	4700.44
498.647	4935.44
498.75	5273.44
498.853	5523.44
498.956	5546.44
499.059	5941.44
499.163	6007.44
499.266	6371.44
499.369	6539.44
499.471	6915.44
499.574	7507.44
499.677	7792.44
499.78	8347.44
499.883	9005.44
499.986	9474.44
500.089	9823.44
500.192	10230.44
500.295	10151.44
500.398	10037.44
500.501	9655.44
500.604	9319.44
500.707	8737.44
500.809	8363.44
500.912	8064.44
501.015	7614.44
501.118	6951.44
501.221	6628.44
501.324	6181.44
501.426	5946.44
501.529	5550.44
501.632	5314.44
501.735	4920.44
501.837	4783.44
501.94	4649.44
502.043	4482.44
502.146	4477.44
502.248	4337.44
502.351	4123.44
502.454	4109.44
502.557	4002.44
502.659	3793.44
502.762	3713.44
502.865	3582.44
502.967	3435.44
503.07	3455.44
503.173	3454.44
503.275	3365.44
503.378	3258.44
503.48	3298.44
503.583	3421.44
503.686	3279.44
503.788	3544.44
503.891	3341.44
503.993	3540.44
504.096	3312.44
504.198	3480.44
504.301	3353.44
504.403	3426.44
504.506	3453.44
504.608	3238.44
504.711	3145.44
504.813	3127.44
504.916	2944.44
505.018	2835.44
505.121	2693.44
505.223	2871.44
505.326	2818.44
505.428	2785.44
505.531	2682.44
505.633	2616.44
505.735	2593.44
505.838	2540.44
505.94	2621.44
506.042	2399.44
506.145	2385.44
506.247	2588.44
506.35	2343.44
506.452	2463.44
506.554	2490.44
506.656	2437.44
506.759	2401.44
506.861	2410.44
506.963	2405.44
507.066	2450.44
507.168	2510.44
507.27	2378.44
507.372	2286.44
507.475	2343.44
507.577	2416.44
507.679	2167.44
507.781	2243.44
507.883	2308.44
507.986	2187.44
508.088	2278.44
508.19	2322.44
508.292	2305.44
508.394	2178.44
508.496	2141.44
508.598	2178.44
508.701	2183.44
508.803	2204.44
508.905	2233.44
509.007	2228.44
509.109	2280.44
509.211	2255.44
509.313	2104.44
509.415	2095.44
509.517	2261.44
509.619	2107.44
509.721	2153.44
509.823	2145.44
509.925	2376.44
510.027	2102.44
510.129	2134.44
510.231	2222.44
510.333	2038.44
510.435	2103.44
510.537	2210.44
510.639	2158.44
510.741	2169.44
510.843	2321.44
510.945	2181.44
511.047	2194.44
511.148	2201.44
511.25	2130.44
511.352	2121.44
511.454	2105.44
511.556	2263.44
511.658	2158.44
511.76	2220.44
511.861	2378.44
511.963	2140.44
512.065	2076.44
512.167	2144.44
512.268	2302.44
512.37	2186.44
512.472	2177.44
512.574	2270.44
512.676	2239.44
512.777	2081.44
512.879	2171.44
512.981	2169.44
513.082	2167.44
513.184	2261.44
513.286	2579.44
513.387	2265.44
513.489	2368.44
513.591	2291.44
513.692	2234.44
513.794	2280.44
513.896	2152.44
513.997	2195.44
514.099	2183.44
514.2	2335.44
514.302	2268.44
514.404	2255.44
514.505	2301.44
514.607	2302.44
514.708	2337.44
514.81	2378.44
514.911	2385.44
515.013	2414.44
515.114	2489.44
515.216	2387.44
515.317	2334.44
515.419	2427.44
515.52	2519.44
515.622	2479.44
515.723	2504.44
515.825	2819.44
515.926	2575.44
516.027	2605.44
516.129	2613.44
516.23	2785.44
516.332	2829.44
516.433	2823.44
516.534	2983.44
516.636	2915.44
516.737	2921.44
516.838	4221.44
516.94	3329.44
517.041	3282.44
517.142	3669.44
517.244	3585.44
517.345	3516.44
517.446	3616.44
517.547	3623.44
517.649	3531.44
517.75	3626.44
517.851	3602.44
517.952	3946.44
518.054	3472.44
518.155	3510.44
518.256	3334.44
518.357	3376.44
518.458	3167.44
518.56	3063.44
518.661	3078.44
518.762	3052.44
518.863	3065.44
518.964	2873.44
519.065	2752.44
519.166	2817.44
519.268	2754.44
519.369	3025.44
519.47	2797.44
519.571	2709.44
519.672	2612.44
519.773	2713.44
519.874	2639.44
519.975	2686.44
520.076	2639.44
520.177	2735.44
520.278	2580.44
520.379	2617.44
520.48	2550.44
520.581	2506.44
520.682	2528.44
520.783	2608.44
520.884	2655.44
520.985	2575.44
521.086	2569.44
521.187	2587.44
521.288	2544.44
521.389	2620.44
521.489	2487.44
521.59	2464.44
521.691	2553.44
521.792	2523.44
521.893	2583.44
521.994	2643.44
522.095	2621.44
522.195	2593.44
522.296	2687.44
522.397	2603.44
522.498	2555.44
522.599	2400.44
522.699	2568.44
522.8	2513.44
522.901	2576.44
523.002	2498.44
523.102	2796.44
523.203	2543.44
523.304	2659.44
523.405	2509.44
523.505	2524.44
523.606	2550.44
523.707	2589.44
523.807	2521.44
523.908	2487.44
524.009	2645.44
524.109	2513.44
524.21	2455.44
524.31	2574.44
524.411	2710.44
524.512	2681.44
524.612	2627.44
524.713	2826.44
524.813	2541.44
524.914	2782.44
525.014	7656.44
525.115	2990.44
525.216	2578.44
525.316	2548.44
525.417	2586.44
525.517	2534.44
525.618	2491.44
525.718	2591.44
525.819	2548.44
525.919	2541.44
526.019	2555.44
526.12	2705.44
526.22	2507.44
526.321	2544.44
526.421	2532.44
526.522	2558.44
526.622	2467.44
526.722	2574.44
526.823	2593.44
526.923	2619.44
527.023	2688.44
527.124	2552.44
527.224	2655.44
527.324	2538.44
527.425	2599.44
527.525	2520.44
527.625	2618.44
527.726	2519.44
527.826	2655.44
527.926	2610.44
528.026	2583.44
528.127	2494.44
528.227	2544.44
528.327	2704.44
528.427	2547.44
528.528	2592.44
528.628	2646.44
528.728	2455.44
528.828	2591.44
528.928	2739.44
529.029	2534.44
529.129	2566.44
529.229	2658.44
529.329	2598.44
529.429	2563.44
529.529	2655.44
529.629	2664.44
529.729	2546.44
529.829	2753.44
529.93	2544.44
530.03	2589.44
530.13	2587.44
530.23	2599.44
530.33	2621.44
530.43	2601.44
530.53	2575.44
530.63	2617.44
530.73	2470.44
530.83	2448.44
530.93	2544.44
531.03	2541.44
531.13	2670.44
531.23	2520.44
531.33	2550.44
531.429	2633.44
531.529	2814.44
531.629	2540.44
531.729	2520.44
531.829	2518.44
531.929	2461.44
532.029	2516.44
532.129	2477.44
532.229	2585.44
532.328	2464.44
532.428	2477.44
532.528	2521.44
532.628	2458.44
532.728	2465.44
532.827	2476.44
532.927	2543.44
533.027	2512.44
533.127	2614.44
533.227	2499.44
533.326	2478.44
533.426	2436.44
533.526	2602.44
533.625	2640.44
533.725	2766.44
533.825	2572.44
533.924	2308.44
534.024	2249.44
534.124	2404.44
534.223	2451.44
534.323	2799.44
534.423	2377.44
534.522	2394.44
534.622	2209.44
534.722	2322.44
534.821	2444.44
534.921	2292.44
535.02	2267.44
535.12	2426.44
535.219	2398.44
535.319	2338.44
535.419	2364.44
535.518	2234.44
535.618	2235.44
535.717	2359.44
535.817	2201.44
535.916	2062.44
536.016	2255.44
536.115	2235.44
536.215	2118.44
536.314	2130.44
536.413	2118.44
536.513	2129.44
536.612	2071.44
536.712	2073.44
536.811	2088.44
536.91	2058.44
537.01	2044.44
537.109	2108.44
537.209	2029.44
537.308	2025.44
537.407	2111.44
537.507	2106.44
537.606	2033.44
537.705	2155.44
537.805	2078.44
537.904	1995.44
538.003	2061.44
538.102	2151.44
