Data from 28g_HRC06701__42__408.txt Node

Date: Thu Apr 18 02:21:13 CDT 2024
User: Estudiantes 2
Spectrometer: HR+C0670
Trigger mode: 4
Integration Time (sec): 1.000000E0
Scans to average: 1
Electric dark correction enabled: true
Nonlinearity correction enabled: false
Boxcar width: 0
XAxis mode: Wavelengths
Number of Pixels in Spectrum: 2048
>>>>>Begin Spectral Data<<<<<
407.81	-102.81
407.921	-102.81
408.032	-102.81
408.143	-153.81
408.254	-140.81
408.365	44.19
408.476	283.19
408.587	-31.81
408.699	-14.81
408.81	11.19
408.921	-73.81
409.032	-34.81
409.143	61.19
409.254	37.19
409.365	77.19
409.476	13.19
409.587	-19.81
409.698	45.19
409.809	125.19
409.92	-68.81
410.031	-62.81
410.142	35.19
410.253	42.19
410.364	45.19
410.475	144.19
410.585	867.19
410.696	903.19
410.807	918.19
410.918	913.19
411.029	921.19
411.14	978.19
411.251	971.19
411.362	978.19
411.472	962.19
411.583	964.19
411.694	1031.19
411.805	925.19
411.916	930.19
412.026	1088.19
412.137	946.19
412.248	982.19
412.359	967.19
412.47	873.19
412.58	832.19
412.691	975.19
412.802	972.19
412.912	900.19
413.023	934.19
413.134	944.19
413.245	999.19
413.355	961.19
413.466	892.19
413.577	853.19
413.687	969.19
413.798	878.19
413.909	997.19
414.019	885.19
414.13	975.19
414.24	922.19
414.351	979.19
414.462	1151.19
414.572	1019.19
414.683	985.19
414.793	922.19
414.904	1337.19
415.014	890.19
415.125	885.19
415.235	994.19
415.346	1049.19
415.456	1067.19
415.567	958.19
415.677	968.19
415.788	1029.19
415.898	941.19
416.009	955.19
416.119	959.19
416.23	907.19
416.34	894.19
416.45	913.19
416.561	1792.19
416.671	1102.19
416.782	852.19
416.892	877.19
417.002	990.19
417.113	1020.19
417.223	968.19
417.333	907.19
417.444	964.19
417.554	977.19
417.664	1056.19
417.775	959.19
417.885	955.19
417.995	1034.19
418.106	1168.19
418.216	1049.19
418.326	1049.19
418.436	1055.19
418.547	1077.19
418.657	1004.19
418.767	1165.19
418.877	1097.19
418.987	1043.19
419.098	1050.19
419.208	1190.19
419.318	1181.19
419.428	1076.19
419.538	1075.19
419.648	1069.19
419.759	1105.19
419.869	1138.19
419.979	1113.19
420.089	1100.19
420.199	1083.19
420.309	1163.19
420.419	1128.19
420.529	1084.19
420.639	1569.19
420.749	1180.19
420.859	1110.19
420.969	1178.19
421.079	1372.19
421.189	1198.19
421.299	1158.19
421.409	1094.19
421.519	1225.19
421.629	1252.19
421.739	1178.19
421.849	1142.19
421.959	1109.19
422.069	1270.19
422.179	1133.19
422.289	1199.19
422.399	1279.19
422.509	1307.19
422.619	4769.19
422.729	1566.19
422.838	1172.19
422.948	1266.19
423.058	1201.19
423.168	1244.19
423.278	1232.19
423.388	1261.19
423.498	1413.19
423.607	1360.19
423.717	1634.19
423.827	1687.19
423.937	1313.19
424.046	1439.19
424.156	1436.19
424.266	1330.19
424.376	1600.19
424.485	1518.19
424.595	1427.19
424.705	1350.19
424.815	1395.19
424.924	1907.19
425.034	1421.19
425.144	1328.19
425.253	1465.19
425.363	1427.19
425.473	1406.19
425.582	1338.19
425.692	1404.19
425.801	1370.19
425.911	1497.19
426.021	1509.19
426.13	1525.19
426.24	1666.19
426.349	1575.19
426.459	1406.19
426.568	1392.19
426.678	1570.19
426.787	1453.19
426.897	1388.19
427.006	1457.19
427.116	1532.19
427.225	1407.19
427.335	1552.19
427.444	1494.19
427.554	1562.19
427.663	1477.19
427.773	1531.19
427.882	1573.19
427.992	1537.19
428.101	1593.19
428.21	1510.19
428.32	1511.19
428.429	1526.19
428.539	1854.19
428.648	1504.19
428.757	1630.19
428.867	1599.19
428.976	1725.19
429.085	1630.19
429.195	1659.19
429.304	1541.19
429.413	1682.19
429.523	1711.19
429.632	1629.19
429.741	1670.19
429.85	1649.19
429.96	1739.19
430.069	1700.19
430.178	1703.19
430.287	2049.19
430.397	1717.19
430.506	1678.19
430.615	1714.19
430.724	1729.19
430.833	1711.19
430.943	1828.19
431.052	1771.19
431.161	1687.19
431.27	1777.19
431.379	1734.19
431.488	1935.19
431.597	1901.19
431.706	2001.19
431.816	1863.19
431.925	1881.19
432.034	1830.19
432.143	1915.19
432.252	1824.19
432.361	1964.19
432.47	1842.19
432.579	1831.19
432.688	1836.19
432.797	1857.19
432.906	1751.19
433.015	1927.19
433.124	2354.19
433.233	1937.19
433.342	1998.19
433.451	1959.19
433.56	1869.19
433.669	1913.19
433.778	1962.19
433.886	1899.19
433.995	1890.19
434.104	2139.19
434.213	2067.19
434.322	2017.19
434.431	2124.19
434.54	2180.19
434.649	2298.19
434.757	2229.19
434.866	2179.19
434.975	2143.19
435.084	2156.19
435.193	2137.19
435.301	2237.19
435.41	2367.19
435.519	2419.19
435.628	1966.19
435.737	1845.19
435.845	1800.19
435.954	1818.19
436.063	1827.19
436.171	1837.19
436.28	1869.19
436.389	1957.19
436.498	1794.19
436.606	1856.19
436.715	2014.19
436.823	1766.19
436.932	1772.19
437.041	1756.19
437.149	1774.19
437.258	1663.19
437.367	1693.19
437.475	1653.19
437.584	1936.19
437.692	1683.19
437.801	3300.19
437.91	1827.19
438.018	1647.19
438.127	1615.19
438.235	1698.19
438.344	1665.19
438.452	1722.19
438.561	1571.19
438.669	1602.19
438.778	1621.19
438.886	1613.19
438.995	1593.19
439.103	1655.19
439.212	1627.19
439.32	1577.19
439.428	1638.19
439.537	1658.19
439.645	1748.19
439.754	1764.19
439.862	1630.19
439.97	1689.19
440.079	1755.19
440.187	1639.19
440.295	1794.19
440.404	1630.19
440.512	1692.19
440.62	1718.19
440.729	1776.19
440.837	1835.19
440.945	2483.19
441.054	1840.19
441.162	1861.19
441.27	1965.19
441.378	1930.19
441.487	1968.19
441.595	2340.19
441.703	1968.19
441.811	1921.19
441.92	1888.19
442.028	1772.19
442.136	1872.19
442.244	1882.19
442.352	1849.19
442.461	1712.19
442.569	1722.19
442.677	1803.19
442.785	1836.19
442.893	1782.19
443.001	1813.19
443.109	1717.19
443.217	1754.19
443.325	1766.19
443.434	2400.19
443.542	2100.19
443.65	1869.19
443.758	2002.19
443.866	1906.19
443.974	2206.19
444.082	2028.19
444.19	2025.19
444.298	2099.19
444.406	2313.19
444.514	2168.19
444.622	2264.19
444.73	2333.19
444.838	2178.19
444.946	2124.19
445.054	2051.19
445.161	2005.19
445.269	1897.19
445.377	1902.19
445.485	1974.19
445.593	1854.19
445.701	2083.19
445.809	2005.19
445.917	1819.19
446.025	1769.19
446.132	1905.19
446.24	1876.19
446.348	1799.19
446.456	1763.19
446.564	1799.19
446.671	1858.19
446.779	1761.19
446.887	1822.19
446.995	1793.19
447.102	1772.19
447.21	1828.19
447.318	1689.19
447.426	1666.19
447.533	2052.19
447.641	3001.19
447.749	1854.19
447.856	1726.19
447.964	1774.19
448.072	1826.19
448.179	1739.19
448.287	1820.19
448.395	1710.19
448.502	1679.19
448.61	1785.19
448.718	1737.19
448.825	1810.19
448.933	1746.19
449.04	1715.19
449.148	1824.19
449.256	1819.19
449.363	1843.19
449.471	1735.19
449.578	1908.19
449.686	1846.19
449.793	1905.19
449.901	1822.19
450.008	1923.19
450.116	1903.19
450.223	1895.19
450.331	2041.19
450.438	1934.19
450.546	1974.19
450.653	2066.19
450.76	2076.19
450.868	2053.19
450.975	2247.19
451.083	2078.19
451.19	2086.19
451.297	2058.19
451.405	2132.19
451.512	2020.19
451.619	2193.19
451.727	2215.19
451.834	2055.19
451.941	2081.19
452.049	2116.19
452.156	2115.19
452.263	2148.19
452.371	2091.19
452.478	2169.19
452.585	2222.19
452.692	2079.19
452.8	2261.19
452.907	2308.19
453.014	2170.19
453.121	2145.19
453.229	2174.19
453.336	2214.19
453.443	2284.19
453.55	2210.19
453.657	2139.19
453.765	2288.19
453.872	2251.19
453.979	2246.19
454.086	2207.19
454.193	2306.19
454.3	2202.19
454.407	2412.19
454.514	2448.19
454.621	2251.19
454.729	2240.19
454.836	2274.19
454.943	2249.19
455.05	2361.19
455.157	2421.19
455.264	2342.19
455.371	2373.19
455.478	2317.19
455.585	3754.19
455.692	2494.19
455.799	2526.19
455.906	2408.19
456.013	2305.19
456.12	2349.19
456.227	2339.19
456.334	2504.19
456.44	2508.19
456.547	2473.19
456.654	2428.19
456.761	2485.19
456.868	2582.19
456.975	2619.19
457.082	2466.19
457.189	2487.19
457.296	2532.19
457.402	2561.19
457.509	2417.19
457.616	2688.19
457.723	2861.19
457.83	2544.19
457.936	2668.19
458.043	3034.19
458.15	2723.19
458.257	2841.19
458.363	2867.19
458.47	2783.19
458.577	2948.19
458.684	2846.19
458.79	3054.19
458.897	3038.19
459.004	3230.19
459.11	3115.19
459.217	3168.19
459.324	3243.19
459.43	3420.19
459.537	3489.19
459.644	3376.19
459.75	3445.19
459.857	3871.19
459.964	3526.19
460.07	3611.19
460.177	3614.19
460.283	3701.19
460.39	3877.19
460.496	3709.19
460.603	3737.19
460.71	3666.19
460.816	3673.19
460.923	3635.19
461.029	3679.19
461.136	3761.19
461.242	3636.19
461.349	3675.19
461.455	3744.19
461.562	4012.19
461.668	3799.19
461.774	3759.19
461.881	3924.19
461.987	3929.19
462.094	3980.19
462.2	4117.19
462.307	3987.19
462.413	3990.19
462.519	4126.19
462.626	4546.19
462.732	4434.19
462.838	4762.19
462.945	4961.19
463.051	4859.19
463.157	4714.19
463.264	4479.19
463.37	4410.19
463.476	4339.19
463.583	4254.19
463.689	4162.19
463.795	4156.19
463.901	4308.19
464.008	4310.19
464.114	4345.19
464.22	4260.19
464.326	4244.19
464.433	3903.19
464.539	4013.19
464.645	3864.19
464.751	4021.19
464.857	3728.19
464.963	3502.19
465.07	3463.19
465.176	3408.19
465.282	3316.19
465.388	3278.19
465.494	3036.19
465.6	3060.19
465.706	2925.19
465.812	2876.19
465.918	2962.19
466.024	2911.19
466.131	2814.19
466.237	2709.19
466.343	2682.19
466.449	2617.19
466.555	2550.19
466.661	2578.19
466.767	2547.19
466.873	2551.19
466.979	2716.19
467.085	2498.19
467.191	2579.19
467.296	2521.19
467.402	2523.19
467.508	2544.19
467.614	2629.19
467.72	2422.19
467.826	2298.19
467.932	2388.19
468.038	2373.19
468.144	2348.19
468.25	2253.19
468.355	2329.19
468.461	2339.19
468.567	2225.19
468.673	2297.19
468.779	2330.19
468.885	2250.19
468.99	2261.19
469.096	2353.19
469.202	2438.19
469.308	2266.19
469.413	2448.19
469.519	2310.19
469.625	2393.19
469.731	2391.19
469.836	2395.19
469.942	2601.19
470.048	2404.19
470.153	2493.19
470.259	2450.19
470.365	2486.19
470.47	2447.19
470.576	2383.19
470.682	2355.19
470.787	2294.19
470.893	2184.19
470.999	2320.19
471.104	2321.19
471.21	2184.19
471.315	2010.19
471.421	2109.19
471.527	2316.19
471.632	2161.19
471.738	2148.19
471.843	2109.19
471.949	2096.19
472.054	2100.19
472.16	2057.19
472.265	2005.19
472.371	1926.19
472.476	2083.19
472.582	2085.19
472.687	1914.19
472.793	1909.19
472.898	1927.19
473.003	1911.19
473.109	1886.19
473.214	1892.19
473.32	1865.19
473.425	1931.19
473.53	1946.19
473.636	1817.19
473.741	1856.19
473.847	1876.19
473.952	1880.19
474.057	1894.19
474.163	2030.19
474.268	1894.19
474.373	1943.19
474.478	1824.19
474.584	1921.19
474.689	1995.19
474.794	1919.19
474.9	2196.19
475.005	1838.19
475.11	2031.19
475.215	1907.19
475.321	1868.19
475.426	2091.19
475.531	2075.19
475.636	1959.19
475.741	1878.19
475.846	2046.19
475.952	2230.19
476.057	1956.19
476.162	1977.19
476.267	2137.19
476.372	2334.19
476.477	2001.19
476.582	2132.19
476.687	1959.19
476.793	1938.19
476.898	1919.19
477.003	2047.19
477.108	2019.19
477.213	2082.19
477.318	2116.19
477.423	2144.19
477.528	2270.19
477.633	2252.19
477.738	2163.19
477.843	2134.19
477.948	2229.19
478.053	2203.19
478.158	2193.19
478.263	2294.19
478.368	2326.19
478.473	2347.19
478.578	2428.19
478.682	2371.19
478.787	2439.19
478.892	2439.19
478.997	2495.19
479.102	2327.19
479.207	2350.19
479.312	2550.19
479.417	2405.19
479.521	2379.19
479.626	2558.19
479.731	2490.19
479.836	2404.19
479.941	2605.19
480.045	2648.19
480.15	2652.19
480.255	2642.19
480.36	2652.19
480.465	2624.19
480.569	2735.19
480.674	2618.19
480.779	2514.19
480.883	2443.19
480.988	2502.19
481.093	2467.19
481.197	2450.19
481.302	2474.19
481.407	2521.19
481.511	3712.19
481.616	2483.19
481.721	2504.19
481.825	2656.19
481.93	2395.19
482.035	2453.19
482.139	2522.19
482.244	2507.19
482.348	2512.19
482.453	2545.19
482.557	2550.19
482.662	2522.19
482.767	2518.19
482.871	2456.19
482.976	2576.19
483.08	2679.19
483.185	2762.19
483.289	2535.19
483.394	2672.19
483.498	2643.19
483.603	2592.19
483.707	2701.19
483.811	2850.19
483.916	2861.19
484.02	2737.19
484.125	2929.19
484.229	2777.19
484.333	2957.19
484.438	2898.19
484.542	2872.19
484.647	2861.19
484.751	2969.19
484.855	2923.19
484.96	3004.19
485.064	3034.19
485.168	3055.19
485.273	3022.19
485.377	3055.19
485.481	3353.19
485.585	3071.19
485.69	3061.19
485.794	3246.19
485.898	3079.19
486.002	3137.19
486.107	3159.19
486.211	3087.19
486.315	3119.19
486.419	3237.19
486.524	3165.19
486.628	3161.19
486.732	3203.19
486.836	3255.19
486.94	3273.19
487.044	3202.19
487.148	3230.19
487.253	3081.19
487.357	3204.19
487.461	3443.19
487.565	3230.19
487.669	3162.19
487.773	3161.19
487.877	3302.19
487.981	3222.19
488.085	3308.19
488.189	3252.19
488.293	3265.19
488.397	3652.19
488.501	3246.19
488.605	3132.19
488.709	3239.19
488.813	3196.19
488.917	3106.19
489.021	3167.19
489.125	3495.19
489.229	3281.19
489.333	3421.19
489.437	3222.19
489.541	3242.19
489.645	3163.19
489.749	3201.19
489.853	3307.19
489.956	3271.19
490.06	3297.19
490.164	3314.19
490.268	3231.19
490.372	3207.19
490.476	3261.19
490.579	3207.19
490.683	3841.19
490.787	3325.19
490.891	3331.19
490.995	3169.19
491.098	3286.19
491.202	3207.19
491.306	3250.19
491.41	3225.19
491.513	3193.19
491.617	3192.19
491.721	3384.19
491.824	3431.19
491.928	3312.19
492.032	3477.19
492.136	3298.19
492.239	3236.19
492.343	3274.19
492.446	3682.19
492.55	3396.19
492.654	3210.19
492.757	3158.19
492.861	3274.19
492.965	3275.19
493.068	3299.19
493.172	3153.19
493.275	3126.19
493.379	3183.19
493.482	3293.19
493.586	3467.19
493.689	3406.19
493.793	3296.19
493.896	3402.19
494	3396.19
494.103	3399.19
494.207	3656.19
494.31	3637.19
494.414	3323.19
494.517	3252.19
494.621	3184.19
494.724	3212.19
494.828	3241.19
494.931	3194.19
495.034	3226.19
495.138	3394.19
495.241	3271.19
495.345	4030.19
495.448	3348.19
495.551	3213.19
495.655	3272.19
495.758	3173.19
495.861	3142.19
495.965	3182.19
496.068	3194.19
496.171	3209.19
496.274	3254.19
496.378	3204.19
496.481	3239.19
496.584	3300.19
496.687	3404.19
496.791	3313.19
496.894	3370.19
496.997	3302.19
497.1	3312.19
497.204	3396.19
497.307	3465.19
497.41	3606.19
497.513	3774.19
497.616	3610.19
497.719	3482.19
497.823	3615.19
497.926	3647.19
498.029	3864.19
498.132	3866.19
498.235	3972.19
498.338	4088.19
498.441	4220.19
498.544	4226.19
498.647	4438.19
498.75	4606.19
498.853	4896.19
498.956	4918.19
499.059	5202.19
499.163	5234.19
499.266	5528.19
499.369	5660.19
499.471	5909.19
499.574	6238.19
499.677	6493.19
499.78	6933.19
499.883	7254.19
499.986	7680.19
500.089	7846.19
500.192	8071.19
500.295	8245.19
500.398	8014.19
500.501	7903.19
500.604	7600.19
500.707	7201.19
500.809	6858.19
500.912	6758.19
501.015	6337.19
501.118	5920.19
501.221	5678.19
501.324	5357.19
501.426	5078.19
501.529	4730.19
501.632	4687.19
501.735	4406.19
501.837	4228.19
501.94	4161.19
502.043	3997.19
502.146	3913.19
502.248	3881.19
502.351	3714.19
502.454	3694.19
502.557	3540.19
502.659	3540.19
502.762	3265.19
502.865	3328.19
502.967	3289.19
503.07	3203.19
503.173	3129.19
503.275	3107.19
503.378	3036.19
503.48	2981.19
503.583	3165.19
503.686	3011.19
503.788	3219.19
503.891	2960.19
503.993	3174.19
504.096	2979.19
504.198	3064.19
504.301	2998.19
504.403	3015.19
504.506	2999.19
504.608	2980.19
504.711	2880.19
504.813	2779.19
504.916	2735.19
505.018	2636.19
505.121	2531.19
505.223	2549.19
505.326	2529.19
505.428	2567.19
505.531	2451.19
505.633	2505.19
505.735	2347.19
505.838	2349.19
505.94	2373.19
506.042	2295.19
506.145	2287.19
506.247	2339.19
506.35	2275.19
506.452	2300.19
506.554	2309.19
506.656	2330.19
506.759	2125.19
506.861	2216.19
506.963	2197.19
507.066	2213.19
507.168	2311.19
507.27	2164.19
507.372	2084.19
507.475	2155.19
507.577	2228.19
507.679	2141.19
507.781	2024.19
507.883	2158.19
507.986	2102.19
508.088	2076.19
508.19	2136.19
508.292	2148.19
508.394	2017.19
508.496	1940.19
508.598	2057.19
508.701	2059.19
508.803	2012.19
508.905	1941.19
509.007	2005.19
509.109	2116.19
509.211	2058.19
509.313	2091.19
509.415	1984.19
509.517	2003.19
509.619	1987.19
509.721	2018.19
509.823	1940.19
509.925	2191.19
510.027	2014.19
510.129	2029.19
510.231	2098.19
510.333	2006.19
510.435	1970.19
510.537	2070.19
510.639	2087.19
510.741	1983.19
510.843	2079.19
510.945	2022.19
511.047	2054.19
511.148	2013.19
511.25	2016.19
511.352	1973.19
511.454	1886.19
511.556	2078.19
511.658	2045.19
511.76	2032.19
511.861	2115.19
511.963	1998.19
512.065	1933.19
512.167	1941.19
512.268	2188.19
512.37	2045.19
512.472	1961.19
512.574	2055.19
512.676	2059.19
512.777	1938.19
512.879	1971.19
512.981	1996.19
513.082	2041.19
513.184	2027.19
513.286	2531.19
513.387	2062.19
513.489	2172.19
513.591	2146.19
513.692	2134.19
513.794	2076.19
513.896	2042.19
513.997	2030.19
514.099	1987.19
514.2	2117.19
514.302	2100.19
514.404	2077.19
514.505	2077.19
514.607	2211.19
514.708	2130.19
514.81	2169.19
514.911	2275.19
515.013	2224.19
515.114	2207.19
515.216	2211.19
515.317	2264.19
515.419	2226.19
515.52	2312.19
515.622	2334.19
515.723	2313.19
515.825	2500.19
515.926	2487.19
516.027	2293.19
516.129	2363.19
516.23	2562.19
516.332	2510.19
516.433	2493.19
516.534	2709.19
516.636	2633.19
516.737	2631.19
516.838	3837.19
516.94	2982.19
517.041	2845.19
517.142	3052.19
517.244	3144.19
517.345	3061.19
517.446	3157.19
517.547	3197.19
517.649	3037.19
517.75	3073.19
517.851	3042.19
517.952	3331.19
518.054	3042.19
518.155	3121.19
518.256	2900.19
518.357	2966.19
518.458	2813.19
518.56	2787.19
518.661	2733.19
518.762	2709.19
518.863	2818.19
518.964	2703.19
519.065	2603.19
519.166	2544.19
519.268	2445.19
519.369	2785.19
519.47	2567.19
519.571	2518.19
519.672	2400.19
519.773	2363.19
519.874	2515.19
519.975	2428.19
520.076	2483.19
520.177	2586.19
520.278	2437.19
520.379	2419.19
520.48	2379.19
520.581	2297.19
520.682	2273.19
520.783	2300.19
520.884	2481.19
520.985	2395.19
521.086	2378.19
521.187	2461.19
521.288	2325.19
521.389	2365.19
521.489	2405.19
521.59	2282.19
521.691	2352.19
521.792	2336.19
521.893	2480.19
521.994	2441.19
522.095	2375.19
522.195	2404.19
522.296	2395.19
522.397	2425.19
522.498	2336.19
522.599	2234.19
522.699	2319.19
522.8	2356.19
522.901	2368.19
523.002	2280.19
523.102	2558.19
523.203	2338.19
523.304	2509.19
523.405	2279.19
523.505	2341.19
523.606	2361.19
523.707	2379.19
523.807	2421.19
523.908	2318.19
524.009	2452.19
524.109	2413.19
524.21	2288.19
524.31	2427.19
524.411	2450.19
524.512	2472.19
524.612	2427.19
524.713	2559.19
524.813	2428.19
524.914	2570.19
525.014	7292.19
525.115	2772.19
525.216	2352.19
525.316	2324.19
525.417	2401.19
525.517	2257.19
525.618	2447.19
525.718	2341.19
525.819	2298.19
525.919	2398.19
526.019	2411.19
526.12	2458.19
526.22	2262.19
526.321	2306.19
526.421	2336.19
526.522	2375.19
526.622	2294.19
526.722	2375.19
526.823	2394.19
526.923	2416.19
527.023	2508.19
527.124	2399.19
527.224	2483.19
527.324	2325.19
527.425	2484.19
527.525	2329.19
527.625	2344.19
527.726	2386.19
527.826	2474.19
527.926	2417.19
528.026	2425.19
528.127	2306.19
528.227	2388.19
528.327	2515.19
528.427	2315.19
528.528	2420.19
528.628	2395.19
528.728	2379.19
528.828	2434.19
528.928	2437.19
529.029	2426.19
529.129	2389.19
529.229	2429.19
529.329	2440.19
529.429	2429.19
529.529	2454.19
529.629	2406.19
529.729	2389.19
529.829	2513.19
529.93	2366.19
530.03	2444.19
530.13	2340.19
530.23	2332.19
530.33	2489.19
530.43	2287.19
530.53	2355.19
530.63	2443.19
530.73	2267.19
530.83	2295.19
530.93	2326.19
531.03	2241.19
531.13	2443.19
531.23	2324.19
531.33	2363.19
531.429	2386.19
531.529	2483.19
531.629	2405.19
531.729	2233.19
531.829	2266.19
531.929	2327.19
532.029	2272.19
532.129	2274.19
532.229	2327.19
532.328	2292.19
532.428	2276.19
532.528	2240.19
532.628	2212.19
532.728	2307.19
532.827	2238.19
532.927	2320.19
533.027	2241.19
533.127	2404.19
533.227	2322.19
533.326	2229.19
533.426	2113.19
533.526	2391.19
533.625	2424.19
533.725	2500.19
533.825	2286.19
533.924	2226.19
534.024	2092.19
534.124	2131.19
534.223	2215.19
534.323	2517.19
534.423	2156.19
534.522	2210.19
534.622	2111.19
534.722	2110.19
534.821	2098.19
534.921	2051.19
535.02	1969.19
535.12	2173.19
535.219	2248.19
535.319	2151.19
535.419	2145.19
535.518	2076.19
535.618	2037.19
535.717	2167.19
535.817	2045.19
535.916	1901.19
536.016	2076.19
536.115	2024.19
536.215	2010.19
536.314	1923.19
536.413	1878.19
536.513	1983.19
536.612	1906.19
536.712	1806.19
536.811	1983.19
536.91	1797.19
537.01	1869.19
537.109	2010.19
537.209	1885.19
537.308	1885.19
537.407	1896.19
537.507	1893.19
537.606	1834.19
537.705	1928.19
537.805	1939.19
537.904	1804.19
538.003	1887.19
538.102	2050.19
538.202	1843.19
