Data from 28g_HRC06701__33__399.txt Node

Date: Thu Apr 18 02:21:04 CDT 2024
User: Estudiantes 2
Spectrometer: HR+C0670
Trigger mode: 4
Integration Time (sec): 1.000000E0
Scans to average: 1
Electric dark correction enabled: true
Nonlinearity correction enabled: false
Boxcar width: 0
XAxis mode: Wavelengths
Number of Pixels in Spectrum: 2048
>>>>>Begin Spectral Data<<<<<
407.81	-121.75
407.921	-121.75
408.032	-121.75
408.143	-158.75
408.254	-152.75
408.365	79.25
408.476	280.25
408.587	-16.75
408.699	25.25
408.81	-29.75
408.921	-47.75
409.032	-34.75
409.143	40.25
409.254	32.25
409.365	74.25
409.476	-9.75
409.587	-6.75
409.698	47.25
409.809	106.25
409.92	-50.75
410.031	-40.75
410.142	83.25
410.253	28.25
410.364	53.25
410.475	558.25
410.585	2707.25
410.696	2872.25
410.807	2806.25
410.918	2918.25
411.029	2820.25
411.14	2858.25
411.251	2907.25
411.362	2896.25
411.472	2927.25
411.583	2946.25
411.694	3032.25
411.805	2960.25
411.916	3038.25
412.026	3170.25
412.137	2982.25
412.248	2967.25
412.359	3027.25
412.47	2852.25
412.58	2773.25
412.691	2919.25
412.802	2838.25
412.912	2808.25
413.023	2918.25
413.134	2841.25
413.245	2910.25
413.355	2885.25
413.466	2876.25
413.577	2872.25
413.687	2962.25
413.798	2839.25
413.909	2920.25
414.019	2909.25
414.13	2972.25
414.24	2897.25
414.351	3031.25
414.462	3128.25
414.572	3018.25
414.683	2973.25
414.793	2925.25
414.904	3298.25
415.014	2926.25
415.125	2878.25
415.235	2948.25
415.346	3049.25
415.456	3022.25
415.567	2995.25
415.677	2894.25
415.788	2943.25
415.898	2940.25
416.009	2872.25
416.119	2906.25
416.23	2935.25
416.34	2759.25
416.45	2928.25
416.561	3692.25
416.671	3073.25
416.782	2867.25
416.892	2922.25
417.002	3095.25
417.113	3061.25
417.223	3048.25
417.333	2984.25
417.444	3016.25
417.554	3176.25
417.664	3142.25
417.775	2990.25
417.885	3098.25
417.995	3107.25
418.106	3399.25
418.216	3201.25
418.326	3330.25
418.436	3390.25
418.547	3328.25
418.657	3301.25
418.767	3593.25
418.877	3384.25
418.987	3426.25
419.098	3511.25
419.208	3444.25
419.318	3489.25
419.428	3356.25
419.538	3433.25
419.648	3451.25
419.759	3374.25
419.869	3471.25
419.979	3394.25
420.089	3394.25
420.199	3364.25
420.309	3374.25
420.419	3416.25
420.529	3438.25
420.639	3896.25
420.749	3491.25
420.859	3539.25
420.969	3572.25
421.079	3747.25
421.189	3533.25
421.299	3536.25
421.409	3435.25
421.519	3617.25
421.629	3780.25
421.739	3517.25
421.849	3561.25
421.959	3583.25
422.069	3660.25
422.179	3617.25
422.289	3746.25
422.399	3818.25
422.509	3918.25
422.619	7341.25
422.729	4243.25
422.838	3834.25
422.948	3890.25
423.058	3924.25
423.168	4026.25
423.278	3996.25
423.388	4170.25
423.498	4197.25
423.607	4173.25
423.717	4479.25
423.827	4540.25
423.937	4249.25
424.046	4279.25
424.156	4426.25
424.266	4246.25
424.376	4538.25
424.485	4517.25
424.595	4296.25
424.705	4261.25
424.815	4389.25
424.924	4839.25
425.034	4395.25
425.144	4314.25
425.253	4398.25
425.363	4429.25
425.473	4500.25
425.582	4393.25
425.692	4410.25
425.801	4335.25
425.911	4584.25
426.021	4502.25
426.13	4542.25
426.24	4627.25
426.349	4661.25
426.459	4468.25
426.568	4513.25
426.678	4772.25
426.787	4563.25
426.897	4596.25
427.006	4681.25
427.116	4676.25
427.225	4604.25
427.335	4925.25
427.444	4665.25
427.554	4684.25
427.663	4798.25
427.773	4840.25
427.882	4841.25
427.992	4801.25
428.101	4824.25
428.21	4701.25
428.32	4950.25
428.429	4790.25
428.539	5116.25
428.648	4900.25
428.757	4935.25
428.867	4960.25
428.976	5190.25
429.085	5005.25
429.195	5027.25
429.304	5089.25
429.413	5175.25
429.523	5156.25
429.632	5079.25
429.741	5099.25
429.85	5154.25
429.96	5240.25
430.069	5171.25
430.178	5174.25
430.287	5557.25
430.397	5305.25
430.506	5271.25
430.615	5350.25
430.724	5333.25
430.833	5289.25
430.943	5401.25
431.052	5410.25
431.161	5514.25
431.27	5679.25
431.379	5535.25
431.488	5853.25
431.597	5914.25
431.706	5877.25
431.816	5916.25
431.925	5791.25
432.034	5720.25
432.143	5819.25
432.252	5710.25
432.361	5913.25
432.47	5787.25
432.579	5724.25
432.688	5774.25
432.797	5842.25
432.906	5698.25
433.015	5896.25
433.124	6218.25
433.233	6000.25
433.342	5956.25
433.451	5954.25
433.56	5895.25
433.669	5900.25
433.778	5881.25
433.886	6097.25
433.995	6055.25
434.104	6326.25
434.213	6350.25
434.322	6224.25
434.431	6656.25
434.54	6675.25
434.649	6846.25
434.757	6803.25
434.866	6706.25
434.975	6546.25
435.084	6506.25
435.193	6277.25
435.301	6446.25
435.41	6348.25
435.519	6515.25
435.628	5779.25
435.737	5731.25
435.845	5582.25
435.954	5620.25
436.063	5574.25
436.171	5591.25
436.28	5494.25
436.389	5771.25
436.498	5574.25
436.606	5763.25
436.715	5756.25
436.823	5404.25
436.932	5424.25
437.041	5331.25
437.149	5275.25
437.258	5227.25
437.367	5135.25
437.475	5144.25
437.584	5340.25
437.692	5119.25
437.801	6782.25
437.91	5318.25
438.018	5141.25
438.127	5018.25
438.235	5136.25
438.344	5099.25
438.452	4930.25
438.561	4934.25
438.669	5098.25
438.778	4962.25
438.886	5014.25
438.995	4924.25
439.103	4986.25
439.212	4997.25
439.32	5103.25
439.428	5030.25
439.537	5012.25
439.645	5239.25
439.754	5202.25
439.862	5075.25
439.97	5231.25
440.079	5239.25
440.187	5081.25
440.295	5344.25
440.404	5218.25
440.512	5214.25
440.62	5371.25
440.729	5501.25
440.837	5575.25
440.945	6123.25
441.054	5767.25
441.162	5712.25
441.27	5884.25
441.378	5887.25
441.487	5983.25
441.595	6251.25
441.703	6017.25
441.811	5855.25
441.92	5778.25
442.028	5594.25
442.136	5690.25
442.244	5768.25
442.352	5612.25
442.461	5460.25
442.569	5619.25
442.677	5599.25
442.785	5598.25
442.893	5579.25
443.001	5546.25
443.109	5465.25
443.217	5631.25
443.325	5577.25
443.434	6272.25
443.542	5932.25
443.65	5817.25
443.758	5952.25
443.866	5938.25
443.974	6356.25
444.082	6164.25
444.19	6482.25
444.298	6551.25
444.406	6735.25
444.514	6943.25
444.622	6957.25
444.73	7047.25
444.838	6724.25
444.946	6547.25
445.054	6349.25
445.161	6206.25
445.269	5982.25
445.377	5958.25
445.485	5863.25
445.593	5906.25
445.701	5938.25
445.809	5793.25
445.917	5680.25
446.025	5561.25
446.132	5756.25
446.24	5662.25
446.348	5652.25
446.456	5576.25
446.564	5481.25
446.671	5619.25
446.779	5529.25
446.887	5482.25
446.995	5508.25
447.102	5549.25
447.21	5408.25
447.318	5427.25
447.426	5335.25
447.533	5643.25
447.641	6702.25
447.749	5402.25
447.856	5353.25
447.964	5358.25
448.072	5470.25
448.179	5332.25
448.287	5396.25
448.395	5475.25
448.502	5285.25
448.61	5381.25
448.718	5391.25
448.825	5437.25
448.933	5373.25
449.04	5380.25
449.148	5468.25
449.256	5527.25
449.363	5572.25
449.471	5577.25
449.578	5748.25
449.686	5589.25
449.793	5653.25
449.901	5685.25
450.008	5717.25
450.116	5904.25
450.223	5909.25
450.331	5968.25
450.438	6033.25
450.546	6081.25
450.653	6309.25
450.76	6155.25
450.868	6261.25
450.975	6524.25
451.083	6295.25
451.19	6267.25
451.297	6232.25
451.405	6349.25
451.512	6251.25
451.619	6477.25
451.727	6567.25
451.834	6362.25
451.941	6462.25
452.049	6371.25
452.156	6434.25
452.263	6488.25
452.371	6511.25
452.478	6502.25
452.585	6746.25
452.692	6523.25
452.8	6643.25
452.907	6671.25
453.014	6602.25
453.121	6737.25
453.229	6670.25
453.336	6755.25
453.443	6850.25
453.55	6670.25
453.657	6565.25
453.765	7015.25
453.872	6767.25
453.979	6898.25
454.086	6931.25
454.193	7028.25
454.3	6744.25
454.407	7045.25
454.514	7109.25
454.621	6858.25
454.729	6851.25
454.836	7051.25
454.943	7055.25
455.05	7053.25
455.157	7207.25
455.264	6984.25
455.371	7258.25
455.478	7190.25
455.585	8607.25
455.692	7373.25
455.799	7472.25
455.906	7171.25
456.013	7148.25
456.12	7300.25
456.227	7408.25
456.334	7236.25
456.44	7531.25
456.547	7574.25
456.654	7388.25
456.761	7494.25
456.868	7724.25
456.975	7720.25
457.082	7562.25
457.189	7509.25
457.296	7602.25
457.402	7705.25
457.509	7620.25
457.616	7853.25
457.723	8158.25
457.83	7919.25
457.936	8032.25
458.043	8393.25
458.15	8088.25
458.257	8402.25
458.363	8508.25
458.47	8614.25
458.577	8902.25
458.684	8826.25
458.79	9185.25
458.897	9436.25
459.004	9579.25
459.11	9483.25
459.217	9558.25
459.324	9882.25
459.43	10069.25
459.537	10246.25
459.644	10201.25
459.75	10383.25
459.857	10823.25
459.964	10781.25
460.07	10875.25
460.177	11143.25
460.283	11029.25
460.39	11331.25
460.496	11119.25
460.603	11371.25
460.71	11037.25
460.816	11095.25
460.923	10726.25
461.029	10875.25
461.136	11137.25
461.242	10951.25
461.349	10985.25
461.455	11144.25
461.562	11320.25
461.668	11440.25
461.774	11323.25
461.881	11354.25
461.987	11648.25
462.094	12041.25
462.2	11893.25
462.307	11899.25
462.413	12015.25
462.519	12456.25
462.626	13176.25
462.732	13438.25
462.838	14206.25
462.945	14576.25
463.051	14457.25
463.157	14244.25
463.264	13516.25
463.37	13139.25
463.476	12828.25
463.583	12565.25
463.689	12461.25
463.795	12571.25
463.901	12448.25
464.008	12862.25
464.114	12747.25
464.22	12653.25
464.326	12584.25
464.433	12082.25
464.539	11916.25
464.645	11663.25
464.751	11580.25
464.857	11224.25
464.963	10774.25
465.07	10408.25
465.176	9880.25
465.282	9793.25
465.388	9613.25
465.494	9118.25
465.6	8994.25
465.706	8723.25
465.812	8629.25
465.918	8733.25
466.024	8344.25
466.131	8281.25
466.237	8163.25
466.343	7936.25
466.449	7841.25
466.555	7739.25
466.661	7717.25
466.767	7701.25
466.873	7527.25
466.979	7724.25
467.085	7532.25
467.191	7510.25
467.296	7565.25
467.402	7422.25
467.508	7527.25
467.614	7452.25
467.72	7067.25
467.826	7062.25
467.932	7019.25
468.038	6896.25
468.144	6906.25
468.25	6870.25
468.355	6866.25
468.461	6855.25
468.567	6829.25
468.673	6818.25
468.779	6808.25
468.885	6772.25
468.99	6693.25
469.096	6658.25
469.202	6864.25
469.308	6904.25
469.413	7015.25
469.519	6901.25
469.625	7030.25
469.731	7107.25
469.836	7129.25
469.942	7343.25
470.048	7176.25
470.153	7094.25
470.259	7156.25
470.365	7254.25
470.47	7131.25
470.576	6965.25
470.682	6841.25
470.787	6882.25
470.893	6680.25
470.999	6808.25
471.104	6700.25
471.21	6455.25
471.315	6198.25
471.421	6255.25
471.527	6472.25
471.632	6396.25
471.738	6273.25
471.843	6101.25
471.949	6048.25
472.054	5991.25
472.16	5858.25
472.265	5922.25
472.371	5642.25
472.476	5773.25
472.582	5850.25
472.687	5749.25
472.793	5720.25
472.898	5704.25
473.003	5705.25
473.109	5671.25
473.214	5532.25
473.32	5538.25
473.425	5611.25
473.53	5662.25
473.636	5415.25
473.741	5438.25
473.847	5566.25
473.952	5518.25
474.057	5646.25
474.163	5592.25
474.268	5458.25
474.373	5498.25
474.478	5416.25
474.584	5413.25
474.689	5522.25
474.794	5548.25
474.9	5836.25
475.005	5431.25
475.11	5643.25
475.215	5540.25
475.321	5485.25
475.426	5683.25
475.531	5604.25
475.636	5525.25
475.741	5356.25
475.846	5824.25
475.952	5845.25
476.057	5617.25
476.162	5749.25
476.267	5879.25
476.372	6002.25
476.477	5723.25
476.582	5884.25
476.687	5682.25
476.793	5871.25
476.898	5913.25
477.003	6046.25
477.108	5912.25
477.213	5878.25
477.318	6083.25
477.423	6146.25
477.528	6375.25
477.633	6347.25
477.738	6366.25
477.843	6392.25
477.948	6559.25
478.053	6515.25
478.158	6491.25
478.263	6663.25
478.368	6691.25
478.473	6809.25
478.578	6864.25
478.682	6862.25
478.787	6924.25
478.892	6967.25
478.997	7107.25
479.102	6798.25
479.207	6870.25
479.312	7094.25
479.417	6928.25
479.521	6895.25
479.626	7146.25
479.731	7119.25
479.836	7198.25
479.941	7402.25
480.045	7619.25
480.15	7640.25
480.255	7687.25
480.36	7733.25
480.465	7606.25
480.569	7792.25
480.674	7478.25
480.779	7275.25
480.883	7225.25
480.988	7349.25
481.093	7197.25
481.197	6971.25
481.302	7101.25
481.407	7138.25
481.511	9179.25
481.616	7180.25
481.721	7064.25
481.825	7261.25
481.93	6969.25
482.035	7122.25
482.139	7048.25
482.244	7107.25
482.348	7103.25
482.453	7000.25
482.557	7217.25
482.662	7191.25
482.767	7115.25
482.871	7218.25
482.976	7420.25
483.08	7444.25
483.185	7643.25
483.289	7437.25
483.394	7543.25
483.498	7538.25
483.603	7544.25
483.707	7798.25
483.811	7771.25
483.916	7815.25
484.02	7764.25
484.125	8091.25
484.229	7995.25
484.333	8065.25
484.438	8094.25
484.542	8096.25
484.647	8152.25
484.751	8409.25
484.855	8364.25
484.96	8388.25
485.064	8541.25
485.168	8627.25
485.273	8556.25
485.377	8551.25
485.481	8894.25
485.585	8795.25
485.69	9010.25
485.794	8935.25
485.898	8807.25
486.002	8882.25
486.107	9101.25
486.211	8849.25
486.315	8994.25
486.419	8894.25
486.524	8969.25
486.628	8960.25
486.732	8979.25
486.836	8980.25
486.94	9082.25
487.044	8899.25
487.148	8956.25
487.253	8831.25
487.357	9043.25
487.461	9169.25
487.565	8949.25
487.669	8924.25
487.773	8888.25
487.877	9012.25
487.981	8899.25
488.085	8888.25
488.189	8968.25
488.293	8932.25
488.397	9401.25
488.501	8878.25
488.605	8816.25
488.709	8902.25
488.813	8923.25
488.917	8872.25
489.021	8931.25
489.125	9299.25
489.229	8921.25
489.333	9066.25
489.437	9030.25
489.541	9098.25
489.645	8915.25
489.749	9027.25
489.853	9198.25
489.956	9087.25
490.06	9053.25
490.164	9031.25
490.268	8876.25
490.372	9040.25
490.476	9096.25
490.579	8982.25
490.683	9663.25
490.787	9035.25
490.891	9062.25
490.995	9086.25
491.098	9060.25
491.202	9035.25
491.306	9052.25
491.41	8900.25
491.513	8912.25
491.617	9019.25
491.721	9094.25
491.824	9116.25
491.928	9012.25
492.032	9109.25
492.136	8956.25
492.239	9039.25
492.343	9017.25
492.446	9535.25
492.55	9026.25
492.654	9061.25
492.757	8899.25
492.861	9179.25
492.965	8953.25
493.068	9052.25
493.172	8973.25
493.275	9062.25
493.379	9089.25
493.482	9191.25
493.586	9278.25
493.689	9282.25
493.793	9126.25
493.896	9479.25
494	9231.25
494.103	9322.25
494.207	9650.25
494.31	9597.25
494.414	9268.25
494.517	9135.25
494.621	8873.25
494.724	9037.25
494.828	9028.25
494.931	8894.25
495.034	9012.25
495.138	9059.25
495.241	8945.25
495.345	9764.25
495.448	9134.25
495.551	8956.25
495.655	8821.25
495.758	8882.25
495.861	8852.25
495.965	8898.25
496.068	8955.25
496.171	8991.25
496.274	8996.25
496.378	8999.25
496.481	9082.25
496.584	9159.25
496.687	9163.25
496.791	9193.25
496.894	9258.25
496.997	9287.25
497.1	9285.25
497.204	9576.25
497.307	9555.25
497.41	9862.25
497.513	10098.25
497.616	9868.25
497.719	9940.25
497.823	10048.25
497.926	10401.25
498.029	10634.25
498.132	10805.25
498.235	11063.25
498.338	11292.25
498.441	11609.25
498.544	11853.25
498.647	12170.25
498.75	12884.25
498.853	13184.25
498.956	13471.25
499.059	14093.25
499.163	14576.25
499.266	14576.25
499.369	14576.25
499.471	14576.25
499.574	14576.25
499.677	14576.25
499.78	14576.25
499.883	14576.25
499.986	14576.25
500.089	14576.25
500.192	14576.25
500.295	14576.25
500.398	14576.25
500.501	14576.25
500.604	14576.25
500.707	14576.25
500.809	14576.25
500.912	14576.25
501.015	14576.25
501.118	14576.25
501.221	14576.25
501.324	14576.25
501.426	14219.25
501.529	13488.25
501.632	13050.25
501.735	12371.25
501.837	12176.25
501.94	11706.25
502.043	11300.25
502.146	10982.25
502.248	10821.25
502.351	10530.25
502.454	10262.25
502.557	10274.25
502.659	9992.25
502.762	9397.25
502.865	9160.25
502.967	9139.25
503.07	8880.25
503.173	8934.25
503.275	8725.25
503.378	8524.25
503.48	8501.25
503.583	8515.25
503.686	8420.25
503.788	8602.25
503.891	8489.25
503.993	8435.25
504.096	8337.25
504.198	8583.25
504.301	8556.25
504.403	8590.25
504.506	8412.25
504.608	8261.25
504.711	7962.25
504.813	7762.25
504.916	7663.25
505.018	7401.25
505.121	7182.25
505.223	7172.25
505.326	6936.25
505.428	6821.25
505.531	6771.25
505.633	6688.25
505.735	6570.25
505.838	6566.25
505.94	6470.25
506.042	6380.25
506.145	6297.25
506.247	6406.25
506.35	6160.25
506.452	6246.25
506.554	6289.25
506.656	6248.25
506.759	6076.25
506.861	6140.25
506.963	6171.25
507.066	6046.25
507.168	6099.25
507.27	6016.25
507.372	5883.25
507.475	5965.25
507.577	5975.25
507.679	5881.25
507.781	5831.25
507.883	5889.25
507.986	5731.25
508.088	5712.25
508.19	5698.25
508.292	5732.25
508.394	5618.25
508.496	5550.25
508.598	5601.25
508.701	5623.25
508.803	5615.25
508.905	5610.25
509.007	5643.25
509.109	5643.25
509.211	5621.25
509.313	5453.25
509.415	5391.25
509.517	5538.25
509.619	5436.25
509.721	5584.25
509.823	5449.25
509.925	5778.25
510.027	5453.25
510.129	5516.25
510.231	5493.25
510.333	5421.25
510.435	5436.25
510.537	5505.25
510.639	5564.25
510.741	5468.25
510.843	5509.25
510.945	5331.25
511.047	5517.25
511.148	5494.25
511.25	5415.25
511.352	5477.25
511.454	5321.25
511.556	5630.25
511.658	5394.25
511.76	5480.25
511.861	5701.25
511.963	5365.25
512.065	5423.25
512.167	5451.25
512.268	5712.25
512.37	5463.25
512.472	5480.25
512.574	5684.25
512.676	5516.25
512.777	5415.25
512.879	5558.25
512.981	5432.25
513.082	5591.25
513.184	5547.25
513.286	6122.25
513.387	5599.25
513.489	5782.25
513.591	5635.25
513.692	5612.25
513.794	5699.25
513.896	5597.25
513.997	5619.25
514.099	5523.25
514.2	5791.25
514.302	5738.25
514.404	5629.25
514.505	5727.25
514.607	5934.25
514.708	5846.25
514.81	5926.25
514.911	5938.25
515.013	6141.25
515.114	5999.25
515.216	6049.25
515.317	5992.25
515.419	6106.25
515.52	6434.25
515.622	6131.25
515.723	6289.25
515.825	6593.25
515.926	6542.25
516.027	6544.25
516.129	6620.25
516.23	6776.25
516.332	6776.25
516.433	7006.25
516.534	7300.25
516.636	7189.25
516.737	7399.25
516.838	8664.25
516.94	7876.25
517.041	8036.25
517.142	8474.25
517.244	8471.25
517.345	8452.25
517.446	8729.25
517.547	8882.25
517.649	8681.25
517.75	8622.25
517.851	8672.25
517.952	8755.25
518.054	8406.25
518.155	8503.25
518.256	8001.25
518.357	8037.25
518.458	7780.25
518.56	7638.25
518.661	7559.25
518.762	7470.25
518.863	7558.25
518.964	7324.25
519.065	7019.25
519.166	7006.25
519.268	6788.25
519.369	7151.25
519.47	6749.25
519.571	6706.25
519.672	6667.25
519.773	6703.25
519.874	6749.25
519.975	6547.25
520.076	6542.25
520.177	6616.25
520.278	6518.25
520.379	6434.25
520.48	6473.25
520.581	6351.25
520.682	6323.25
520.783	6380.25
520.884	6370.25
520.985	6402.25
521.086	6360.25
521.187	6310.25
521.288	6243.25
521.389	6342.25
521.489	6285.25
521.59	6289.25
521.691	6259.25
521.792	6316.25
521.893	6375.25
521.994	6389.25
522.095	6411.25
522.195	6439.25
522.296	6349.25
522.397	6319.25
522.498	6215.25
522.599	6075.25
522.699	6182.25
522.8	6221.25
522.901	6259.25
523.002	6329.25
523.102	6393.25
523.203	6213.25
523.304	6362.25
523.405	6205.25
523.505	6273.25
523.606	6274.25
523.707	6155.25
523.807	6255.25
523.908	6114.25
524.009	6305.25
524.109	6229.25
524.21	6273.25
524.31	6203.25
524.411	6475.25
524.512	6363.25
524.612	6298.25
524.713	6424.25
524.813	6262.25
524.914	6458.25
525.014	11465.25
525.115	6613.25
525.216	6144.25
525.316	6308.25
525.417	6286.25
525.517	6303.25
525.618	6182.25
525.718	6265.25
525.819	6104.25
525.919	6398.25
526.019	6306.25
526.12	6363.25
526.22	6129.25
526.321	6153.25
526.421	6160.25
526.522	6248.25
526.622	6066.25
526.722	6139.25
526.823	6111.25
526.923	6173.25
527.023	6392.25
527.124	6217.25
527.224	6319.25
527.324	6229.25
527.425	6316.25
527.525	6124.25
527.625	6271.25
527.726	6228.25
527.826	6410.25
527.926	6287.25
528.026	6266.25
528.127	6076.25
528.227	6248.25
528.327	6444.25
528.427	6229.25
528.528	6277.25
528.628	6295.25
528.728	6224.25
528.828	6304.25
528.928	6438.25
529.029	6292.25
529.129	6237.25
529.229	6226.25
529.329	6209.25
529.429	6305.25
529.529	6310.25
529.629	6407.25
529.729	6085.25
529.829	6262.25
529.93	6213.25
530.03	6138.25
530.13	6101.25
530.23	6101.25
530.33	6227.25
530.43	6041.25
530.53	6188.25
530.63	6139.25
530.73	6093.25
530.83	5993.25
530.93	6083.25
531.03	5986.25
531.13	6114.25
531.23	6020.25
531.33	6090.25
531.429	6149.25
531.529	6171.25
531.629	6100.25
531.729	5903.25
531.829	6022.25
531.929	6004.25
532.029	6046.25
532.129	5942.25
532.229	6080.25
532.328	6011.25
532.428	5903.25
532.528	5896.25
532.628	5824.25
532.728	5921.25
532.827	5714.25
532.927	5898.25
533.027	5690.25
533.127	6011.25
533.227	5828.25
533.326	5854.25
533.426	5803.25
533.526	5979.25
533.625	5898.25
533.725	6033.25
533.825	5831.25
533.924	5696.25
534.024	5558.25
534.124	5651.25
534.223	5701.25
534.323	6045.25
534.423	5593.25
534.522	5749.25
534.622	5555.25
534.722	5573.25
534.821	5621.25
534.921	5506.25
535.02	5359.25
535.12	5586.25
535.219	5519.25
535.319	5425.25
535.419	5446.25
535.518	5334.25
535.618	5383.25
535.717	5350.25
535.817	5294.25
535.916	5181.25
536.016	5185.25
536.115	5190.25
536.215	5064.25
536.314	4971.25
536.413	5049.25
536.513	4980.25
536.612	4948.25
536.712	4985.25
536.811	5014.25
536.91	4852.25
537.01	4847.25
537.109	5061.25
537.209	4965.25
