Data from 28g_HRC06701__56__422.txt Node

Date: Thu Apr 18 02:21:27 CDT 2024
User: Estudiantes 2
Spectrometer: HR+C0670
Trigger mode: 4
Integration Time (sec): 1.000000E0
Scans to average: 1
Electric dark correction enabled: true
Nonlinearity correction enabled: false
Boxcar width: 0
XAxis mode: Wavelengths
Number of Pixels in Spectrum: 2048
>>>>>Begin Spectral Data<<<<<
407.81	-107.94
407.921	-107.94
408.032	-107.94
408.143	-117.94
408.254	-123.94
408.365	11.06
408.476	285.06
408.587	-58.94
408.699	-44.94
408.81	4.06
408.921	-43.94
409.032	-56.94
409.143	76.06
409.254	31.06
409.365	77.06
409.476	2.06
409.587	4.06
409.698	64.06
409.809	102.06
409.92	1.06
410.031	-28.94
410.142	79.06
410.253	67.06
410.364	11.06
410.475	1126.06
410.585	5471.06
410.696	5821.06
410.807	5589.06
410.918	5668.06
411.029	5844.06
411.14	5773.06
411.251	5837.06
411.362	5854.06
411.472	6015.06
411.583	5807.06
411.694	6158.06
411.805	6055.06
411.916	6215.06
412.026	6102.06
412.137	5936.06
412.248	5863.06
412.359	5918.06
412.47	5746.06
412.58	5667.06
412.691	5808.06
412.802	5842.06
412.912	5757.06
413.023	5876.06
413.134	5699.06
413.245	5779.06
413.355	5852.06
413.466	5784.06
413.577	5729.06
413.687	5735.06
413.798	5658.06
413.909	5884.06
414.019	5852.06
414.13	5985.06
414.24	5902.06
414.351	5953.06
414.462	6208.06
414.572	6000.06
414.683	5884.06
414.793	5979.06
414.904	6293.06
415.014	5708.06
415.125	5817.06
415.235	5882.06
415.346	6033.06
415.456	5927.06
415.567	5852.06
415.677	5859.06
415.788	5783.06
415.898	5699.06
416.009	5757.06
416.119	5928.06
416.23	5811.06
416.34	5853.06
416.45	5826.06
416.561	6672.06
416.671	5966.06
416.782	5884.06
416.892	5938.06
417.002	6017.06
417.113	6212.06
417.223	6078.06
417.333	6045.06
417.444	6175.06
417.554	6219.06
417.664	6308.06
417.775	6172.06
417.885	6370.06
417.995	6310.06
418.106	6652.06
418.216	6564.06
418.326	6645.06
418.436	6774.06
418.547	6832.06
418.657	6886.06
418.767	7054.06
418.877	7014.06
418.987	6939.06
419.098	7098.06
419.208	7108.06
419.318	6921.06
419.428	6981.06
419.538	6873.06
419.648	6985.06
419.759	6901.06
419.869	6885.06
419.979	6880.06
420.089	6852.06
420.199	6925.06
420.309	6909.06
420.419	6937.06
420.529	6915.06
420.639	7390.06
420.749	6993.06
420.859	7045.06
420.969	7137.06
421.079	7473.06
421.189	7014.06
421.299	6935.06
421.409	7059.06
421.519	7140.06
421.629	7344.06
421.739	7316.06
421.849	7401.06
421.959	7420.06
422.069	7380.06
422.179	7401.06
422.289	7529.06
422.399	7687.06
422.509	8040.06
422.619	10347.06
422.729	8074.06
422.838	7888.06
422.948	8003.06
423.058	8162.06
423.168	8267.06
423.278	8228.06
423.388	8351.06
423.498	8591.06
423.607	8417.06
423.717	8940.06
423.827	8987.06
423.937	8639.06
424.046	8817.06
424.156	8884.06
424.266	8780.06
424.376	9101.06
424.485	8891.06
424.595	8796.06
424.705	8765.06
424.815	8712.06
424.924	9419.06
425.034	8808.06
425.144	8786.06
425.253	8871.06
425.363	9154.06
425.473	8934.06
425.582	8843.06
425.692	9037.06
425.801	8836.06
425.911	9149.06
426.021	9125.06
426.13	9233.06
426.24	9201.06
426.349	9289.06
426.459	9092.06
426.568	9160.06
426.678	9418.06
426.787	9396.06
426.897	9350.06
427.006	9445.06
427.116	9526.06
427.225	9566.06
427.335	9645.06
427.444	9528.06
427.554	9548.06
427.663	9593.06
427.773	9690.06
427.882	9790.06
427.992	9695.06
428.101	9871.06
428.21	9798.06
428.32	10000.06
428.429	9971.06
428.539	10271.06
428.648	10022.06
428.757	9970.06
428.867	10164.06
428.976	10399.06
429.085	10241.06
429.195	10247.06
429.304	10261.06
429.413	10344.06
429.523	10522.06
429.632	10439.06
429.741	10468.06
429.85	10348.06
429.96	10813.06
430.069	10567.06
430.178	10721.06
430.287	11144.06
430.397	10844.06
430.506	10787.06
430.615	10820.06
430.724	11032.06
430.833	11115.06
430.943	10872.06
431.052	11117.06
431.161	11191.06
431.27	11486.06
431.379	11492.06
431.488	12113.06
431.597	12017.06
431.706	12186.06
431.816	12173.06
431.925	11877.06
432.034	11759.06
432.143	11839.06
432.252	11723.06
432.361	11781.06
432.47	11769.06
432.579	11928.06
432.688	11772.06
432.797	11877.06
432.906	11819.06
433.015	12009.06
433.124	12405.06
433.233	12140.06
433.342	11992.06
433.451	12119.06
433.56	12115.06
433.669	12122.06
433.778	12081.06
433.886	12554.06
433.995	12437.06
434.104	12839.06
434.213	12893.06
434.322	13001.06
434.431	13487.06
434.54	14068.06
434.649	14232.06
434.757	14353.06
434.866	14070.06
434.975	13734.06
435.084	13291.06
435.193	13061.06
435.301	12802.06
435.41	12684.06
435.519	12656.06
435.628	11890.06
435.737	11744.06
435.845	11716.06
435.954	11700.06
436.063	11492.06
436.171	11503.06
436.28	11516.06
436.389	11667.06
436.498	11332.06
436.606	11548.06
436.715	11688.06
436.823	11227.06
436.932	11071.06
437.041	11071.06
437.149	10924.06
437.258	10733.06
437.367	10522.06
437.475	10595.06
437.584	10929.06
437.692	10513.06
437.801	12343.06
437.91	10598.06
438.018	10423.06
438.127	10342.06
438.235	10612.06
438.344	10491.06
438.452	10479.06
438.561	10309.06
438.669	10466.06
438.778	10325.06
438.886	10349.06
438.995	10220.06
439.103	10458.06
439.212	10567.06
439.32	10567.06
439.428	10434.06
439.537	10518.06
439.645	10710.06
439.754	10651.06
439.862	10537.06
439.97	10623.06
440.079	10738.06
440.187	10721.06
440.295	11056.06
440.404	10880.06
440.512	11129.06
440.62	11150.06
440.729	11202.06
440.837	11312.06
440.945	12336.06
441.054	11632.06
441.162	11878.06
441.27	12395.06
441.378	12630.06
441.487	12489.06
441.595	13006.06
441.703	12577.06
441.811	12086.06
441.92	12135.06
442.028	11796.06
442.136	11812.06
442.244	11677.06
442.352	11766.06
442.461	11471.06
442.569	11390.06
442.677	11618.06
442.785	11580.06
442.893	11585.06
443.001	11730.06
443.109	11675.06
443.217	11752.06
443.325	11684.06
443.434	12353.06
443.542	12392.06
443.65	12143.06
443.758	12425.06
443.866	12380.06
443.974	12845.06
444.082	12879.06
444.19	13429.06
444.298	13705.06
444.406	14151.06
444.514	14578.06
444.622	14578.06
444.73	14389.06
444.838	14120.06
444.946	13647.06
445.054	12945.06
445.161	13085.06
445.269	12474.06
445.377	12430.06
445.485	12202.06
445.593	11934.06
445.701	12088.06
445.809	11836.06
445.917	11788.06
446.025	11673.06
446.132	11830.06
446.24	11796.06
446.348	11784.06
446.456	11461.06
446.564	11678.06
446.671	11552.06
446.779	11451.06
446.887	11488.06
446.995	11132.06
447.102	11350.06
447.21	11261.06
447.318	11213.06
447.426	10980.06
447.533	11506.06
447.641	12532.06
447.749	11152.06
447.856	11062.06
447.964	11056.06
448.072	11213.06
448.179	11117.06
448.287	11162.06
448.395	11154.06
448.502	11035.06
448.61	11266.06
448.718	11269.06
448.825	11256.06
448.933	11280.06
449.04	11060.06
449.148	11333.06
449.256	11287.06
449.363	11467.06
449.471	11529.06
449.578	11737.06
449.686	11472.06
449.793	11812.06
449.901	11723.06
450.008	11807.06
450.116	12101.06
450.223	12199.06
450.331	12288.06
450.438	12488.06
450.546	12564.06
450.653	12705.06
450.76	13048.06
450.868	13115.06
450.975	13431.06
451.083	13036.06
451.19	13092.06
451.297	13003.06
451.405	13018.06
451.512	13063.06
451.619	13239.06
451.727	13309.06
451.834	13101.06
451.941	12989.06
452.049	13286.06
452.156	13298.06
452.263	13396.06
452.371	13330.06
452.478	13598.06
452.585	13649.06
452.692	13438.06
452.8	13626.06
452.907	13843.06
453.014	13689.06
453.121	13816.06
453.229	13698.06
453.336	13917.06
453.443	13831.06
453.55	14086.06
453.657	13733.06
453.765	14211.06
453.872	13992.06
453.979	14111.06
454.086	14230.06
454.193	14293.06
454.3	13990.06
454.407	14100.06
454.514	14436.06
454.621	14378.06
454.729	14269.06
454.836	14360.06
454.943	14578.06
455.05	14392.06
455.157	14578.06
455.264	14460.06
455.371	14578.06
455.478	14548.06
455.585	14578.06
455.692	14578.06
455.799	14578.06
455.906	14578.06
456.013	14578.06
456.12	14578.06
456.227	14578.06
456.334	14578.06
456.44	14578.06
456.547	14578.06
456.654	14578.06
456.761	14578.06
456.868	14578.06
456.975	14578.06
457.082	14578.06
457.189	14578.06
457.296	14578.06
457.402	14578.06
457.509	14578.06
457.616	14578.06
457.723	14578.06
457.83	14578.06
457.936	14578.06
458.043	14578.06
458.15	14578.06
458.257	14578.06
458.363	14578.06
458.47	14578.06
458.577	14578.06
458.684	14578.06
458.79	14578.06
458.897	14578.06
459.004	14578.06
459.11	14578.06
459.217	14578.06
459.324	14578.06
459.43	14578.06
459.537	14578.06
459.644	14578.06
459.75	14578.06
459.857	14578.06
459.964	14578.06
460.07	14578.06
460.177	14578.06
460.283	14578.06
460.39	14578.06
460.496	14578.06
460.603	14578.06
460.71	14578.06
460.816	14578.06
460.923	14578.06
461.029	14578.06
461.136	14578.06
461.242	14578.06
461.349	14578.06
461.455	14578.06
461.562	14578.06
461.668	14578.06
461.774	14578.06
461.881	14578.06
461.987	14578.06
462.094	14578.06
462.2	14578.06
462.307	14578.06
462.413	14578.06
462.519	14578.06
462.626	14578.06
462.732	14578.06
462.838	14578.06
462.945	14578.06
463.051	14578.06
463.157	14578.06
463.264	14578.06
463.37	14578.06
463.476	14578.06
463.583	14578.06
463.689	14578.06
463.795	14578.06
463.901	14578.06
464.008	14578.06
464.114	14578.06
464.22	14578.06
464.326	14578.06
464.433	14578.06
464.539	14578.06
464.645	14578.06
464.751	14578.06
464.857	14578.06
464.963	14578.06
465.07	14578.06
465.176	14578.06
465.282	14578.06
465.388	14578.06
465.494	14578.06
465.6	14578.06
465.706	14578.06
465.812	14578.06
465.918	14578.06
466.024	14578.06
466.131	14578.06
466.237	14578.06
466.343	14578.06
466.449	14578.06
466.555	14578.06
466.661	14578.06
466.767	14578.06
466.873	14578.06
466.979	14578.06
467.085	14578.06
467.191	14578.06
467.296	14578.06
467.402	14578.06
467.508	14578.06
467.614	14578.06
467.72	14578.06
467.826	14578.06
467.932	14578.06
468.038	14578.06
468.144	14578.06
468.25	14510.06
468.355	14572.06
468.461	14479.06
468.567	14417.06
468.673	14410.06
468.779	14218.06
468.885	14247.06
468.99	14407.06
469.096	14578.06
469.202	14578.06
469.308	14490.06
469.413	14578.06
469.519	14578.06
469.625	14578.06
469.731	14578.06
469.836	14578.06
469.942	14578.06
470.048	14578.06
470.153	14578.06
470.259	14578.06
470.365	14578.06
470.47	14578.06
470.576	14578.06
470.682	14578.06
470.787	14578.06
470.893	14447.06
470.999	14335.06
471.104	14200.06
471.21	13912.06
471.315	13651.06
471.421	13567.06
471.527	13731.06
471.632	13396.06
471.738	13015.06
471.843	13017.06
471.949	12952.06
472.054	12808.06
472.16	12718.06
472.265	12612.06
472.371	12436.06
472.476	12453.06
472.582	12429.06
472.687	12059.06
472.793	12173.06
472.898	12128.06
473.003	12053.06
473.109	11930.06
473.214	11960.06
473.32	11935.06
473.425	11929.06
473.53	11899.06
473.636	11710.06
473.741	11744.06
473.847	11518.06
473.952	11832.06
474.057	11716.06
474.163	11949.06
474.268	11806.06
474.373	11757.06
474.478	11687.06
474.584	11684.06
474.689	11790.06
474.794	11783.06
474.9	12114.06
475.005	11740.06
475.11	11997.06
475.215	11839.06
475.321	11860.06
475.426	12004.06
475.531	11973.06
475.636	11928.06
475.741	11754.06
475.846	12126.06
475.952	12315.06
476.057	12079.06
476.162	12314.06
476.267	12170.06
476.372	12672.06
476.477	12257.06
476.582	12455.06
476.687	12395.06
476.793	12447.06
476.898	12504.06
477.003	12660.06
477.108	12666.06
477.213	12799.06
477.318	13031.06
477.423	13095.06
477.528	13440.06
477.633	13516.06
477.738	13815.06
477.843	13749.06
477.948	14061.06
478.053	14139.06
478.158	14060.06
478.263	14309.06
478.368	14459.06
478.473	14578.06
478.578	14578.06
478.682	14578.06
478.787	14578.06
478.892	14578.06
478.997	14578.06
479.102	14578.06
479.207	14578.06
479.312	14578.06
479.417	14578.06
479.521	14578.06
479.626	14578.06
479.731	14578.06
479.836	14578.06
479.941	14578.06
480.045	14578.06
480.15	14578.06
480.255	14578.06
480.36	14578.06
480.465	14578.06
480.569	14578.06
480.674	14578.06
480.779	14578.06
480.883	14578.06
480.988	14578.06
481.093	14578.06
481.197	14578.06
481.302	14578.06
481.407	14578.06
481.511	14578.06
481.616	14578.06
481.721	14578.06
481.825	14578.06
481.93	14578.06
482.035	14578.06
482.139	14578.06
482.244	14578.06
482.348	14578.06
482.453	14578.06
482.557	14578.06
482.662	14578.06
482.767	14578.06
482.871	14578.06
482.976	14578.06
483.08	14578.06
483.185	14578.06
483.289	14578.06
483.394	14578.06
483.498	14578.06
483.603	14578.06
483.707	14578.06
483.811	14578.06
483.916	14578.06
484.02	14578.06
484.125	14578.06
484.229	14578.06
484.333	14578.06
484.438	14578.06
484.542	14578.06
484.647	14578.06
484.751	14578.06
484.855	14578.06
484.96	14578.06
485.064	14578.06
485.168	14578.06
485.273	14578.06
485.377	14578.06
485.481	14578.06
485.585	14578.06
485.69	14578.06
485.794	14578.06
485.898	14578.06
486.002	14578.06
486.107	14578.06
486.211	14578.06
486.315	14578.06
486.419	14578.06
486.524	14578.06
486.628	14578.06
486.732	14578.06
486.836	14578.06
486.94	14578.06
487.044	14578.06
487.148	14578.06
487.253	14578.06
487.357	14578.06
487.461	14578.06
487.565	14578.06
487.669	14578.06
487.773	14578.06
487.877	14578.06
487.981	14578.06
488.085	14578.06
488.189	14578.06
488.293	14578.06
488.397	14578.06
488.501	14578.06
488.605	14578.06
488.709	14578.06
488.813	14578.06
488.917	14578.06
489.021	14578.06
489.125	14578.06
489.229	14578.06
489.333	14578.06
489.437	14578.06
489.541	14578.06
489.645	14578.06
489.749	14578.06
489.853	14578.06
489.956	14578.06
490.06	14578.06
490.164	14578.06
490.268	14578.06
490.372	14578.06
490.476	14578.06
490.579	14578.06
490.683	14578.06
490.787	14578.06
490.891	14578.06
490.995	14578.06
491.098	14578.06
491.202	14578.06
491.306	14578.06
491.41	14578.06
491.513	14578.06
491.617	14578.06
491.721	14578.06
491.824	14578.06
491.928	14578.06
492.032	14578.06
492.136	14578.06
492.239	14578.06
492.343	14578.06
492.446	14578.06
492.55	14578.06
492.654	14578.06
492.757	14578.06
492.861	14578.06
492.965	14578.06
493.068	14578.06
493.172	14578.06
493.275	14578.06
493.379	14578.06
493.482	14578.06
493.586	14578.06
493.689	14578.06
493.793	14578.06
493.896	14578.06
494	14578.06
494.103	14578.06
494.207	14578.06
494.31	14578.06
494.414	14578.06
494.517	14578.06
494.621	14578.06
494.724	14578.06
494.828	14578.06
494.931	14578.06
495.034	14578.06
495.138	14578.06
495.241	14578.06
495.345	14578.06
495.448	14578.06
495.551	14578.06
495.655	14578.06
495.758	14578.06
495.861	14578.06
495.965	14578.06
496.068	14578.06
496.171	14578.06
496.274	14578.06
496.378	14578.06
496.481	14578.06
496.584	14578.06
496.687	14578.06
496.791	14578.06
496.894	14578.06
496.997	14578.06
497.1	14578.06
497.204	14578.06
497.307	14578.06
497.41	14578.06
497.513	14578.06
497.616	14578.06
497.719	14578.06
497.823	14578.06
497.926	14578.06
498.029	14578.06
498.132	14578.06
498.235	14578.06
498.338	14578.06
498.441	14578.06
498.544	14578.06
498.647	14578.06
498.75	14578.06
498.853	14578.06
498.956	14578.06
499.059	14578.06
499.163	14578.06
499.266	14578.06
499.369	14578.06
499.471	14578.06
499.574	14578.06
499.677	14578.06
499.78	14578.06
499.883	14578.06
499.986	14578.06
500.089	14578.06
500.192	14578.06
500.295	14578.06
500.398	14578.06
500.501	14578.06
500.604	14578.06
500.707	14578.06
500.809	14578.06
500.912	14578.06
501.015	14578.06
501.118	14578.06
501.221	14578.06
501.324	14578.06
501.426	14578.06
501.529	14578.06
501.632	14578.06
501.735	14578.06
501.837	14578.06
501.94	14578.06
502.043	14578.06
502.146	14578.06
502.248	14578.06
502.351	14578.06
502.454	14578.06
502.557	14578.06
502.659	14578.06
502.762	14578.06
502.865	14578.06
502.967	14578.06
503.07	14578.06
503.173	14578.06
503.275	14578.06
503.378	14578.06
503.48	14578.06
503.583	14578.06
503.686	14578.06
503.788	14578.06
503.891	14578.06
503.993	14578.06
504.096	14578.06
504.198	14578.06
504.301	14578.06
504.403	14578.06
504.506	14578.06
504.608	14578.06
504.711	14578.06
504.813	14578.06
504.916	14578.06
505.018	14578.06
505.121	14578.06
505.223	14578.06
505.326	14578.06
505.428	14578.06
505.531	14578.06
505.633	14578.06
505.735	14578.06
505.838	14540.06
505.94	14486.06
506.042	14411.06
506.145	14049.06
506.247	14298.06
506.35	13924.06
506.452	13972.06
506.554	14023.06
506.656	13813.06
506.759	13709.06
506.861	13773.06
506.963	13590.06
507.066	13726.06
507.168	13596.06
507.27	13550.06
507.372	13395.06
507.475	13198.06
507.577	13239.06
507.679	13208.06
507.781	12844.06
507.883	12948.06
507.986	12979.06
508.088	12742.06
508.19	12711.06
508.292	12815.06
508.394	12662.06
508.496	12685.06
508.598	12558.06
508.701	12557.06
508.803	12625.06
508.905	12557.06
509.007	12673.06
509.109	12602.06
509.211	12605.06
509.313	12578.06
509.415	12328.06
509.517	12427.06
509.619	12319.06
509.721	12442.06
509.823	12285.06
509.925	12410.06
510.027	12282.06
510.129	12282.06
510.231	12362.06
510.333	12148.06
510.435	12174.06
510.537	12328.06
510.639	12332.06
510.741	12203.06
510.843	12271.06
510.945	12193.06
511.047	12280.06
511.148	12270.06
511.25	12202.06
511.352	12373.06
511.454	12148.06
511.556	12292.06
511.658	12263.06
511.76	12411.06
511.861	12483.06
511.963	12186.06
512.065	12163.06
512.167	12224.06
512.268	12649.06
512.37	12351.06
512.472	12369.06
512.574	12483.06
512.676	12523.06
512.777	12272.06
512.879	12285.06
512.981	12358.06
513.082	12307.06
513.184	12343.06
513.286	12931.06
513.387	12620.06
513.489	12680.06
513.591	12636.06
513.692	12707.06
513.794	12711.06
513.896	12518.06
513.997	12756.06
514.099	12715.06
514.2	12998.06
514.302	12942.06
514.404	12874.06
514.505	13040.06
514.607	13096.06
514.708	12953.06
514.81	13274.06
514.911	13308.06
515.013	13545.06
515.114	13497.06
515.216	13614.06
515.317	13855.06
515.419	13715.06
515.52	14189.06
515.622	14124.06
515.723	14199.06
515.825	14578.06
515.926	14578.06
516.027	14578.06
516.129	14578.06
516.23	14578.06
516.332	14578.06
516.433	14578.06
516.534	14578.06
516.636	14578.06
516.737	14578.06
516.838	14578.06
516.94	14578.06
517.041	14578.06
517.142	14578.06
517.244	14578.06
517.345	14578.06
517.446	14578.06
517.547	14578.06
517.649	14578.06
517.75	14578.06
517.851	14578.06
517.952	14578.06
518.054	14578.06
518.155	14578.06
518.256	14578.06
518.357	14578.06
518.458	14578.06
518.56	14578.06
518.661	14578.06
518.762	14578.06
518.863	14578.06
518.964	14578.06
519.065	14578.06
519.166	14578.06
519.268	14578.06
519.369	14578.06
519.47	14578.06
519.571	14578.06
519.672	14578.06
519.773	14578.06
519.874	14578.06
519.975	14578.06
520.076	14578.06
520.177	14578.06
520.278	14578.06
520.379	14578.06
520.48	14552.06
520.581	14564.06
520.682	14578.06
520.783	14546.06
520.884	14578.06
520.985	14464.06
521.086	14478.06
521.187	14557.06
521.288	14294.06
521.389	14407.06
521.489	14143.06
521.59	14236.06
521.691	14225.06
521.792	14187.06
521.893	14393.06
521.994	14119.06
522.095	13984.06
522.195	14119.06
522.296	14241.06
522.397	14176.06
522.498	14243.06
522.599	14078.06
522.699	14073.06
522.8	14040.06
522.901	14262.06
523.002	14177.06
523.102	14383.06
523.203	13952.06
523.304	14312.06
523.405	14061.06
523.505	14097.06
523.606	14183.06
523.707	14095.06
523.807	14058.06
523.908	14046.06
524.009	14099.06
524.109	14136.06
524.21	14022.06
524.31	14124.06
524.411	14337.06
524.512	14443.06
524.612	14244.06
524.713	14380.06
524.813	14244.06
524.914	14448.06
525.014	14578.06
525.115	14488.06
525.216	14056.06
525.316	14144.06
525.417	14204.06
525.517	14185.06
525.618	14212.06
525.718	14268.06
525.819	14310.06
525.919	14318.06
526.019	14183.06
526.12	14282.06
526.22	14242.06
526.321	14331.06
526.421	14309.06
526.522	14247.06
526.622	14174.06
526.722	14280.06
526.823	14278.06
526.923	14267.06
527.023	14315.06
527.124	14358.06
527.224	14309.06
527.324	14172.06
527.425	14327.06
527.525	14270.06
527.625	14199.06
527.726	14205.06
527.826	14334.06
527.926	14182.06
528.026	14310.06
528.127	14118.06
528.227	14374.06
528.327	14279.06
528.427	14299.06
528.528	14133.06
528.628	14216.06
528.728	14252.06
528.828	14271.06
528.928	14221.06
529.029	14211.06
529.129	14069.06
529.229	14085.06
529.329	14120.06
529.429	14318.06
529.529	14423.06
529.629	14112.06
529.729	14168.06
529.829	14224.06
529.93	13957.06
530.03	14119.06
530.13	14196.06
530.23	14091.06
530.33	14066.06
530.43	14142.06
530.53	14128.06
530.63	14103.06
530.73	14137.06
530.83	13982.06
530.93	14005.06
531.03	14106.06
531.13	13965.06
531.23	14126.06
531.33	14033.06
531.429	14007.06
531.529	14373.06
531.629	14083.06
531.729	13873.06
