Data from 28g_HRC06701__30__396.txt Node

Date: Thu Apr 18 02:21:01 CDT 2024
User: Estudiantes 2
Spectrometer: HR+C0670
Trigger mode: 4
Integration Time (sec): 1.000000E0
Scans to average: 1
Electric dark correction enabled: true
Nonlinearity correction enabled: false
Boxcar width: 0
XAxis mode: Wavelengths
Number of Pixels in Spectrum: 2048
>>>>>Begin Spectral Data<<<<<
407.81	-125.31
407.921	-125.31
408.032	-125.31
408.143	-95.31
408.254	-156.31
408.365	21.69
408.476	268.69
408.587	-49.31
408.699	-39.31
408.81	-3.31
408.921	-41.31
409.032	-34.31
409.143	21.69
409.254	27.69
409.365	96.69
409.476	-40.31
409.587	60.69
409.698	87.69
409.809	75.69
409.92	-28.31
410.031	-15.31
410.142	39.69
410.253	22.69
410.364	72.69
410.475	164.69
410.585	878.69
410.696	1014.69
410.807	987.69
410.918	971.69
411.029	1057.69
411.14	1003.69
411.251	938.69
411.362	1114.69
411.472	1058.69
411.583	1040.69
411.694	1081.69
411.805	1037.69
411.916	1039.69
412.026	1087.69
412.137	1066.69
412.248	1029.69
412.359	959.69
412.47	1001.69
412.58	953.69
412.691	1016.69
412.802	1052.69
412.912	999.69
413.023	949.69
413.134	950.69
413.245	1097.69
413.355	973.69
413.466	948.69
413.577	1048.69
413.687	1077.69
413.798	937.69
413.909	1078.69
414.019	969.69
414.13	1005.69
414.24	1003.69
414.351	1059.69
414.462	1182.69
414.572	1114.69
414.683	1090.69
414.793	1007.69
414.904	1340.69
415.014	1098.69
415.125	962.69
415.235	1033.69
415.346	1202.69
415.456	1094.69
415.567	988.69
415.677	1029.69
415.788	1002.69
415.898	1013.69
416.009	981.69
416.119	1071.69
416.23	997.69
416.34	989.69
416.45	1096.69
416.561	1846.69
416.671	1153.69
416.782	993.69
416.892	998.69
417.002	1084.69
417.113	1133.69
417.223	1089.69
417.333	995.69
417.444	1005.69
417.554	1131.69
417.664	1126.69
417.775	1023.69
417.885	1086.69
417.995	1061.69
418.106	1281.69
418.216	1177.69
418.326	1080.69
418.436	1093.69
418.547	1206.69
418.657	1106.69
418.767	1240.69
418.877	1199.69
418.987	1174.69
419.098	1140.69
419.208	1173.69
419.318	1256.69
419.428	1216.69
419.538	1175.69
419.648	1225.69
419.759	1205.69
419.869	1268.69
419.979	1209.69
420.089	1196.69
420.199	1148.69
420.309	1161.69
420.419	1228.69
420.529	1142.69
420.639	1670.69
420.749	1322.69
420.859	1268.69
420.969	1266.69
421.079	1490.69
421.189	1288.69
421.299	1260.69
421.409	1207.69
421.519	1308.69
421.629	1297.69
421.739	1180.69
421.849	1275.69
421.959	1205.69
422.069	1326.69
422.179	1310.69
422.289	1288.69
422.399	1330.69
422.509	1441.69
422.619	4891.69
422.729	1636.69
422.838	1307.69
422.948	1367.69
423.058	1316.69
423.168	1327.69
423.278	1419.69
423.388	1411.69
423.498	1493.69
423.607	1550.69
423.717	1698.69
423.827	1690.69
423.937	1470.69
424.046	1554.69
424.156	1589.69
424.266	1477.69
424.376	1735.69
424.485	1654.69
424.595	1471.69
424.705	1492.69
424.815	1438.69
424.924	1898.69
425.034	1570.69
425.144	1446.69
425.253	1529.69
425.363	1549.69
425.473	1572.69
425.582	1434.69
425.692	1497.69
425.801	1507.69
425.911	1645.69
426.021	1532.69
426.13	1703.69
426.24	1776.69
426.349	1652.69
426.459	1617.69
426.568	1504.69
426.678	1656.69
426.787	1598.69
426.897	1522.69
427.006	1560.69
427.116	1673.69
427.225	1614.69
427.335	1635.69
427.444	1586.69
427.554	1665.69
427.663	1653.69
427.773	1574.69
427.882	1710.69
427.992	1629.69
428.101	1614.69
428.21	1660.69
428.32	1692.69
428.429	1614.69
428.539	1997.69
428.648	1718.69
428.757	1735.69
428.867	1688.69
428.976	1876.69
429.085	1779.69
429.195	1716.69
429.304	1748.69
429.413	1819.69
429.523	1802.69
429.632	1849.69
429.741	1826.69
429.85	1729.69
429.96	1840.69
430.069	1742.69
430.178	1740.69
430.287	2075.69
430.397	1814.69
430.506	1798.69
430.615	1830.69
430.724	1890.69
430.833	1826.69
430.943	1920.69
431.052	1911.69
431.161	1847.69
431.27	1888.69
431.379	1957.69
431.488	2187.69
431.597	2075.69
431.706	2125.69
431.816	2060.69
431.925	1930.69
432.034	1954.69
432.143	2129.69
432.252	2026.69
432.361	2043.69
432.47	2034.69
432.579	1989.69
432.688	1985.69
432.797	2033.69
432.906	1989.69
433.015	2022.69
433.124	2476.69
433.233	2083.69
433.342	2075.69
433.451	2039.69
433.56	2105.69
433.669	2107.69
433.778	2066.69
433.886	2205.69
433.995	2137.69
434.104	2264.69
434.213	2194.69
434.322	2180.69
434.431	2283.69
434.54	2376.69
434.649	2567.69
434.757	2406.69
434.866	2334.69
434.975	2363.69
435.084	2289.69
435.193	2237.69
435.301	2463.69
435.41	2563.69
435.519	2605.69
435.628	2098.69
435.737	2055.69
435.845	1999.69
435.954	1950.69
436.063	2054.69
436.171	1968.69
436.28	1934.69
436.389	2157.69
436.498	1963.69
436.606	1934.69
436.715	2115.69
436.823	1935.69
436.932	1906.69
437.041	1899.69
437.149	1953.69
437.258	1837.69
437.367	1830.69
437.475	1827.69
437.584	2081.69
437.692	1833.69
437.801	3465.69
437.91	1951.69
438.018	1766.69
438.127	1774.69
438.235	1795.69
438.344	1747.69
438.452	1779.69
438.561	1788.69
438.669	1779.69
438.778	1734.69
438.886	1852.69
438.995	1699.69
439.103	1698.69
439.212	1804.69
439.32	1787.69
439.428	1791.69
439.537	1789.69
439.645	1900.69
439.754	1836.69
439.862	1722.69
439.97	1882.69
440.079	1830.69
440.187	1728.69
440.295	2003.69
440.404	1823.69
440.512	1894.69
440.62	1955.69
440.729	1939.69
440.837	2009.69
440.945	2680.69
441.054	2061.69
441.162	2024.69
441.27	2109.69
441.378	2078.69
441.487	2055.69
441.595	2465.69
441.703	2228.69
441.811	2094.69
441.92	1975.69
442.028	2006.69
442.136	2005.69
442.244	1974.69
442.352	2046.69
442.461	1940.69
442.569	1921.69
442.677	1990.69
442.785	2035.69
442.893	1944.69
443.001	1887.69
443.109	1962.69
443.217	1970.69
443.325	1964.69
443.434	2613.69
443.542	2302.69
443.65	2076.69
443.758	2264.69
443.866	2177.69
443.974	2409.69
444.082	2245.69
444.19	2337.69
444.298	2373.69
444.406	2503.69
444.514	2475.69
444.622	2434.69
444.73	2546.69
444.838	2437.69
444.946	2404.69
445.054	2225.69
445.161	2189.69
445.269	2140.69
445.377	2142.69
445.485	2094.69
445.593	2149.69
445.701	2254.69
445.809	2131.69
445.917	2086.69
446.025	1965.69
446.132	2094.69
446.24	2132.69
446.348	2023.69
446.456	1847.69
446.564	1970.69
446.671	1964.69
446.779	1894.69
446.887	1924.69
446.995	1923.69
447.102	1998.69
447.21	1993.69
447.318	2022.69
447.426	1835.69
447.533	2150.69
447.641	3148.69
447.749	2020.69
447.856	1868.69
447.964	1917.69
448.072	1997.69
448.179	1911.69
448.287	1969.69
448.395	1993.69
448.502	1835.69
448.61	1908.69
448.718	1949.69
448.825	1938.69
448.933	1911.69
449.04	1939.69
449.148	1975.69
449.256	1950.69
449.363	2052.69
449.471	2046.69
449.578	2070.69
449.686	1957.69
449.793	2078.69
449.901	1967.69
450.008	2037.69
450.116	2122.69
450.223	2044.69
450.331	2110.69
450.438	2165.69
450.546	2086.69
450.653	2219.69
450.76	2250.69
450.868	2266.69
450.975	2387.69
451.083	2191.69
451.19	2300.69
451.297	2198.69
451.405	2292.69
451.512	2302.69
451.619	2354.69
451.727	2373.69
451.834	2343.69
451.941	2278.69
452.049	2252.69
452.156	2249.69
452.263	2363.69
452.371	2279.69
452.478	2364.69
452.585	2520.69
452.692	2293.69
452.8	2375.69
452.907	2518.69
453.014	2346.69
453.121	2299.69
453.229	2563.69
453.336	2437.69
453.443	2466.69
453.55	2460.69
453.657	2407.69
453.765	2470.69
453.872	2387.69
453.979	2573.69
454.086	2412.69
454.193	2485.69
454.3	2376.69
454.407	2585.69
454.514	2609.69
454.621	2471.69
454.729	2470.69
454.836	2429.69
454.943	2501.69
455.05	2564.69
455.157	2589.69
455.264	2539.69
455.371	2655.69
455.478	2526.69
455.585	3841.69
455.692	2813.69
455.799	2733.69
455.906	2578.69
456.013	2578.69
456.12	2546.69
456.227	2564.69
456.334	2702.69
456.44	2797.69
456.547	2654.69
456.654	2598.69
456.761	2794.69
456.868	2821.69
456.975	2817.69
457.082	2756.69
457.189	2725.69
457.296	2762.69
457.402	2828.69
457.509	2671.69
457.616	2877.69
457.723	3071.69
457.83	2940.69
457.936	2914.69
458.043	3181.69
458.15	3098.69
458.257	3125.69
458.363	3116.69
458.47	3179.69
458.577	3287.69
458.684	3228.69
458.79	3374.69
458.897	3406.69
459.004	3593.69
459.11	3399.69
459.217	3553.69
459.324	3667.69
459.43	3800.69
459.537	3969.69
459.644	3796.69
459.75	3725.69
459.857	4357.69
459.964	4060.69
460.07	3989.69
460.177	4132.69
460.283	4147.69
460.39	4274.69
460.496	4140.69
460.603	4279.69
460.71	4082.69
460.816	4063.69
460.923	4116.69
461.029	4056.69
461.136	4087.69
461.242	4040.69
461.349	4013.69
461.455	4125.69
461.562	4394.69
461.668	4219.69
461.774	4196.69
461.881	4389.69
461.987	4349.69
462.094	4429.69
462.2	4543.69
462.307	4600.69
462.413	4519.69
462.519	4711.69
462.626	5065.69
462.732	5185.69
462.838	5454.69
462.945	5674.69
463.051	5548.69
463.157	5326.69
463.264	5171.69
463.37	4948.69
463.476	4732.69
463.583	4768.69
463.689	4725.69
463.795	4697.69
463.901	4796.69
464.008	4992.69
464.114	4776.69
464.22	4729.69
464.326	4661.69
464.433	4509.69
464.539	4406.69
464.645	4320.69
464.751	4547.69
464.857	4204.69
464.963	3955.69
465.07	3929.69
465.176	3794.69
465.282	3589.69
465.388	3695.69
465.494	3331.69
465.6	3331.69
465.706	3288.69
465.812	3223.69
465.918	3285.69
466.024	3162.69
466.131	3240.69
466.237	3041.69
466.343	2860.69
466.449	2990.69
466.555	2858.69
466.661	2810.69
466.767	2827.69
466.873	2843.69
466.979	2957.69
467.085	2849.69
467.191	2861.69
467.296	2766.69
467.402	2818.69
467.508	2839.69
467.614	2886.69
467.72	2684.69
467.826	2653.69
467.932	2587.69
468.038	2516.69
468.144	2598.69
468.25	2480.69
468.355	2447.69
468.461	2636.69
468.567	2508.69
468.673	2514.69
468.779	2499.69
468.885	2579.69
468.99	2428.69
469.096	2500.69
469.202	2716.69
469.308	2643.69
469.413	2679.69
469.519	2610.69
469.625	2593.69
469.731	2674.69
469.836	2644.69
469.942	2811.69
470.048	2639.69
470.153	2649.69
470.259	2761.69
470.365	2738.69
470.47	2739.69
470.576	2707.69
470.682	2594.69
470.787	2574.69
470.893	2532.69
470.999	2554.69
471.104	2466.69
471.21	2433.69
471.315	2356.69
471.421	2315.69
471.527	2536.69
471.632	2405.69
471.738	2400.69
471.843	2252.69
471.949	2346.69
472.054	2265.69
472.16	2204.69
472.265	2253.69
472.371	2156.69
472.476	2199.69
472.582	2285.69
472.687	2211.69
472.793	2058.69
472.898	2144.69
473.003	2148.69
473.109	2103.69
473.214	2056.69
473.32	2100.69
473.425	2174.69
473.53	2105.69
473.636	2124.69
473.741	2011.69
473.847	2043.69
473.952	2120.69
474.057	2141.69
474.163	2156.69
474.268	2073.69
474.373	2163.69
474.478	2022.69
474.584	2020.69
474.689	2228.69
474.794	2083.69
474.9	2379.69
475.005	2058.69
475.11	2214.69
475.215	2095.69
475.321	2123.69
475.426	2269.69
475.531	2247.69
475.636	2113.69
475.741	2124.69
475.846	2275.69
475.952	2363.69
476.057	2234.69
476.162	2201.69
476.267	2340.69
476.372	2528.69
476.477	2227.69
476.582	2310.69
476.687	2190.69
476.793	2217.69
476.898	2208.69
477.003	2239.69
477.108	2218.69
477.213	2203.69
477.318	2308.69
477.423	2417.69
477.528	2426.69
477.633	2458.69
477.738	2445.69
477.843	2396.69
477.948	2525.69
478.053	2506.69
478.158	2516.69
478.263	2588.69
478.368	2536.69
478.473	2765.69
478.578	2696.69
478.682	2542.69
478.787	2699.69
478.892	2644.69
478.997	2763.69
479.102	2632.69
479.207	2682.69
479.312	2791.69
479.417	2679.69
479.521	2680.69
479.626	2715.69
479.731	2756.69
479.836	2759.69
479.941	2964.69
480.045	2931.69
480.15	2957.69
480.255	2939.69
480.36	2948.69
480.465	2980.69
480.569	3099.69
480.674	2811.69
480.779	2707.69
480.883	2772.69
480.988	2792.69
481.093	2691.69
481.197	2785.69
481.302	2687.69
481.407	2722.69
481.511	4852.69
481.616	2789.69
481.721	2721.69
481.825	2978.69
481.93	2676.69
482.035	2664.69
482.139	2747.69
482.244	2831.69
482.348	2697.69
482.453	2727.69
482.557	2855.69
482.662	2812.69
482.767	2755.69
482.871	2859.69
482.976	2851.69
483.08	2869.69
483.185	3077.69
483.289	2868.69
483.394	2852.69
483.498	3086.69
483.603	2963.69
483.707	3028.69
483.811	3074.69
483.916	3161.69
484.02	3075.69
484.125	3089.69
484.229	3261.69
484.333	3219.69
484.438	3132.69
484.542	3246.69
484.647	3188.69
484.751	3240.69
484.855	3305.69
484.96	3294.69
485.064	3256.69
485.168	3404.69
485.273	3378.69
485.377	3339.69
485.481	3553.69
485.585	3538.69
485.69	3341.69
485.794	3593.69
485.898	3446.69
486.002	3442.69
486.107	3459.69
486.211	3475.69
486.315	3576.69
486.419	3543.69
486.524	3567.69
486.628	3489.69
486.732	3420.69
486.836	3418.69
486.94	3643.69
487.044	3520.69
487.148	3455.69
487.253	3463.69
487.357	3469.69
487.461	3669.69
487.565	3596.69
487.669	3518.69
487.773	3512.69
487.877	3618.69
487.981	3569.69
488.085	3496.69
488.189	3530.69
488.293	3723.69
488.397	3925.69
488.501	3561.69
488.605	3511.69
488.709	3532.69
488.813	3481.69
488.917	3466.69
489.021	3529.69
489.125	3738.69
489.229	3451.69
489.333	3737.69
489.437	3554.69
489.541	3574.69
489.645	3550.69
489.749	3535.69
489.853	3654.69
489.956	3566.69
490.06	3653.69
490.164	3544.69
490.268	3471.69
490.372	3586.69
490.476	3553.69
490.579	3561.69
490.683	4243.69
490.787	3627.69
490.891	3560.69
490.995	3620.69
491.098	3516.69
491.202	3608.69
491.306	3704.69
491.41	3525.69
491.513	3514.69
491.617	3573.69
491.721	3721.69
491.824	3726.69
491.928	3609.69
492.032	3849.69
492.136	3571.69
492.239	3476.69
492.343	3642.69
492.446	3985.69
492.55	3680.69
492.654	3557.69
492.757	3581.69
492.861	3617.69
492.965	3553.69
493.068	3692.69
493.172	3601.69
493.275	3558.69
493.379	3538.69
493.482	3758.69
493.586	3723.69
493.689	3879.69
493.793	3663.69
493.896	3686.69
494	3700.69
494.103	3825.69
494.207	4061.69
494.31	4086.69
494.414	3820.69
494.517	3649.69
494.621	3595.69
494.724	3645.69
494.828	3578.69
494.931	3512.69
495.034	3587.69
495.138	3686.69
495.241	3537.69
495.345	4377.69
495.448	3781.69
495.551	3513.69
495.655	3501.69
495.758	3591.69
495.861	3592.69
495.965	3562.69
496.068	3672.69
496.171	3658.69
496.274	3534.69
496.378	3606.69
496.481	3661.69
496.584	3631.69
496.687	3718.69
496.791	3735.69
496.894	3713.69
496.997	3682.69
497.1	3893.69
497.204	3836.69
497.307	3787.69
497.41	4129.69
497.513	4181.69
497.616	3971.69
497.719	3985.69
497.823	4012.69
497.926	4064.69
498.029	4309.69
498.132	4253.69
498.235	4500.69
498.338	4540.69
498.441	4800.69
498.544	4785.69
498.647	4899.69
498.75	5271.69
498.853	5479.69
498.956	5501.69
499.059	5924.69
499.163	5849.69
499.266	6322.69
499.369	6507.69
499.471	6905.69
499.574	7119.69
499.677	7483.69
499.78	7993.69
499.883	8508.69
499.986	9111.69
500.089	9385.69
500.192	9420.69
500.295	9479.69
500.398	9472.69
500.501	9076.69
500.604	8886.69
500.707	8402.69
500.809	8040.69
500.912	7829.69
501.015	7256.69
501.118	6844.69
501.221	6422.69
501.324	6045.69
501.426	5782.69
501.529	5492.69
501.632	5311.69
501.735	5133.69
501.837	4858.69
501.94	4687.69
502.043	4520.69
502.146	4518.69
502.248	4426.69
502.351	4263.69
502.454	4221.69
502.557	4067.69
502.659	3967.69
502.762	3856.69
502.865	3652.69
502.967	3565.69
503.07	3659.69
503.173	3557.69
503.275	3480.69
503.378	3494.69
503.48	3350.69
503.583	3470.69
503.686	3420.69
503.788	3640.69
503.891	3378.69
503.993	3619.69
504.096	3404.69
504.198	3392.69
504.301	3417.69
504.403	3466.69
504.506	3401.69
504.608	3298.69
504.711	3190.69
504.813	3195.69
504.916	3015.69
505.018	2934.69
505.121	2955.69
505.223	2863.69
505.326	2812.69
505.428	2853.69
505.531	2638.69
505.633	2730.69
505.735	2633.69
505.838	2595.69
505.94	2698.69
506.042	2590.69
506.145	2578.69
506.247	2632.69
506.35	2499.69
506.452	2613.69
506.554	2586.69
506.656	2551.69
506.759	2432.69
506.861	2524.69
506.963	2540.69
507.066	2549.69
507.168	2543.69
507.27	2438.69
507.372	2426.69
507.475	2444.69
507.577	2383.69
507.679	2326.69
507.781	2310.69
507.883	2389.69
507.986	2312.69
508.088	2431.69
508.19	2303.69
508.292	2333.69
508.394	2219.69
508.496	2265.69
508.598	2267.69
508.701	2267.69
508.803	2276.69
508.905	2255.69
509.007	2295.69
509.109	2427.69
509.211	2333.69
509.313	2244.69
509.415	2235.69
509.517	2208.69
509.619	2188.69
509.721	2275.69
509.823	2169.69
509.925	2393.69
510.027	2238.69
510.129	2294.69
510.231	2187.69
510.333	2234.69
510.435	2223.69
510.537	2284.69
510.639	2297.69
510.741	2270.69
510.843	2211.69
510.945	2153.69
511.047	2278.69
511.148	2222.69
511.25	2168.69
511.352	2208.69
511.454	2165.69
511.556	2313.69
511.658	2167.69
511.76	2360.69
511.861	2346.69
511.963	2162.69
512.065	2297.69
512.167	2225.69
512.268	2423.69
512.37	2333.69
512.472	2274.69
512.574	2324.69
512.676	2304.69
512.777	2208.69
512.879	2213.69
512.981	2190.69
513.082	2339.69
513.184	2242.69
513.286	2831.69
513.387	2397.69
513.489	2482.69
513.591	2366.69
513.692	2404.69
513.794	2399.69
513.896	2189.69
513.997	2261.69
514.099	2274.69
514.2	2344.69
514.302	2366.69
514.404	2371.69
514.505	2255.69
514.607	2406.69
514.708	2439.69
514.81	2463.69
514.911	2439.69
515.013	2597.69
515.114	2513.69
515.216	2461.69
515.317	2533.69
515.419	2459.69
515.52	2586.69
515.622	2534.69
515.723	2724.69
515.825	2760.69
515.926	2638.69
516.027	2647.69
516.129	2628.69
516.23	2812.69
516.332	2957.69
516.433	2916.69
516.534	2977.69
516.636	2979.69
516.737	3007.69
516.838	4213.69
516.94	3291.69
517.041	3341.69
517.142	3506.69
517.244	3645.69
517.345	3548.69
517.446	3518.69
517.547	3650.69
517.649	3582.69
517.75	3642.69
517.851	3576.69
517.952	3792.69
518.054	3535.69
518.155	3477.69
518.256	3287.69
518.357	3481.69
518.458	3123.69
518.56	3046.69
518.661	3082.69
518.762	3045.69
518.863	3092.69
518.964	3015.69
519.065	2901.69
519.166	2866.69
519.268	2809.69
519.369	3154.69
519.47	2866.69
519.571	2890.69
519.672	2734.69
519.773	2683.69
519.874	2811.69
519.975	2798.69
520.076	2696.69
520.177	2790.69
520.278	2738.69
520.379	2740.69
520.48	2593.69
520.581	2692.69
520.682	2680.69
520.783	2604.69
520.884	2716.69
520.985	2683.69
521.086	2702.69
521.187	2744.69
521.288	2636.69
521.389	2626.69
521.489	2618.69
521.59	2512.69
521.691	2633.69
521.792	2546.69
521.893	2716.69
521.994	2765.69
522.095	2621.69
522.195	2688.69
522.296	2825.69
522.397	2671.69
522.498	2616.69
522.599	2564.69
522.699	2566.69
522.8	2596.69
522.901	2682.69
523.002	2649.69
523.102	2780.69
523.203	2639.69
523.304	2796.69
523.405	2548.69
523.505	2613.69
523.606	2723.69
523.707	2573.69
523.807	2678.69
523.908	2625.69
524.009	2749.69
524.109	2628.69
524.21	2601.69
524.31	2753.69
524.411	2764.69
524.512	2791.69
524.612	2732.69
524.713	2866.69
524.813	2626.69
524.914	2949.69
525.014	7668.69
525.115	2970.69
525.216	2670.69
525.316	2694.69
525.417	2680.69
525.517	2666.69
525.618	2732.69
525.718	2613.69
525.819	2622.69
525.919	2687.69
526.019	2596.69
526.12	2781.69
526.22	2633.69
526.321	2563.69
526.421	2610.69
526.522	2650.69
526.622	2558.69
526.722	2600.69
526.823	2616.69
526.923	2718.69
527.023	2764.69
527.124	2656.69
527.224	2718.69
527.324	2595.69
527.425	2662.69
527.525	2567.69
527.625	2657.69
527.726	2554.69
527.826	2769.69
527.926	2664.69
528.026	2691.69
528.127	2597.69
528.227	2701.69
528.327	2741.69
528.427	2677.69
528.528	2673.69
528.628	2670.69
528.728	2660.69
528.828	2804.69
528.928	2707.69
529.029	2601.69
529.129	2682.69
529.229	2792.69
529.329	2654.69
529.429	2673.69
529.529	2794.69
529.629	2664.69
529.729	2621.69
529.829	2887.69
529.93	2593.69
530.03	2751.69
530.13	2718.69
530.23	2703.69
530.33	2742.69
530.43	2675.69
530.53	2622.69
530.63	2661.69
530.73	2534.69
530.83	2557.69
530.93	2580.69
531.03	2568.69
531.13	2691.69
531.23	2522.69
531.33	2646.69
531.429	2751.69
531.529	2835.69
531.629	2632.69
531.729	2577.69
531.829	2558.69
531.929	2533.69
532.029	2626.69
532.129	2618.69
532.229	2578.69
532.328	2588.69
532.428	2602.69
532.528	2479.69
532.628	2523.69
532.728	2623.69
532.827	2465.69
532.927	2593.69
533.027	2611.69
533.127	2631.69
533.227	2577.69
533.326	2544.69
533.426	2541.69
533.526	2578.69
533.625	2725.69
533.725	2833.69
533.825	2572.69
533.924	2429.69
534.024	2441.69
534.124	2343.69
534.223	2506.69
534.323	2854.69
534.423	2465.69
534.522	2437.69
534.622	2283.69
534.722	2395.69
534.821	2460.69
534.921	2299.69
535.02	2314.69
535.12	2490.69
535.219	2470.69
535.319	2494.69
535.419	2390.69
535.518	2255.69
535.618	2350.69
535.717	2389.69
535.817	2209.69
535.916	2164.69
536.016	2328.69
536.115	2258.69
536.215	2213.69
536.314	2214.69
536.413	2102.69
536.513	2191.69
536.612	2169.69
536.712	2107.69
536.811	2153.69
536.91	2172.69
537.01	2093.69
537.109	2210.69
537.209	2177.69
537.308	2097.69
537.407	2126.69
537.507	2188.69
537.606	2146.69
537.705	2182.69
537.805	2174.69
537.904	2061.69
538.003	2112.69
