Data from 28g_HRC06701__17__383.txt Node

Date: Thu Apr 18 02:20:48 CDT 2024
User: Estudiantes 2
Spectrometer: HR+C0670
Trigger mode: 4
Integration Time (sec): 1.000000E0
Scans to average: 1
Electric dark correction enabled: true
Nonlinearity correction enabled: false
Boxcar width: 0
XAxis mode: Wavelengths
Number of Pixels in Spectrum: 2048
>>>>>Begin Spectral Data<<<<<
407.81	-160.12
407.921	-160.12
408.032	-160.12
408.143	-96.12
408.254	-155.12
408.365	30.88
408.476	307.88
408.587	-30.12
408.699	-29.12
408.81	-19.12
408.921	-37.12
409.032	-43.12
409.143	38.88
409.254	59.88
409.365	63.88
409.476	-25.12
409.587	47.88
409.698	45.88
409.809	86.88
409.92	-15.12
410.031	-6.12
410.142	55.88
410.253	1.88
410.364	62.88
410.475	126.88
410.585	994.88
410.696	1153.88
410.807	1079.88
410.918	1067.88
411.029	1187.88
411.14	1057.88
411.251	1085.88
411.362	1235.88
411.472	1149.88
411.583	1158.88
411.694	1217.88
411.805	1184.88
411.916	1164.88
412.026	1224.88
412.137	1197.88
412.248	1156.88
412.359	1102.88
412.47	1135.88
412.58	1042.88
412.691	1143.88
412.802	1133.88
412.912	1046.88
413.023	1137.88
413.134	1131.88
413.245	1260.88
413.355	1133.88
413.466	1101.88
413.577	1150.88
413.687	1154.88
413.798	1013.88
413.909	1206.88
414.019	1104.88
414.13	1170.88
414.24	1127.88
414.351	1199.88
414.462	1317.88
414.572	1216.88
414.683	1237.88
414.793	1161.88
414.904	1476.88
415.014	1231.88
415.125	1150.88
415.235	1161.88
415.346	1280.88
415.456	1275.88
415.567	1179.88
415.677	1241.88
415.788	1245.88
415.898	1112.88
416.009	1158.88
416.119	1230.88
416.23	1101.88
416.34	1131.88
416.45	1217.88
416.561	2011.88
416.671	1291.88
416.782	1151.88
416.892	1146.88
417.002	1215.88
417.113	1297.88
417.223	1221.88
417.333	1206.88
417.444	1237.88
417.554	1329.88
417.664	1323.88
417.775	1221.88
417.885	1304.88
417.995	1261.88
418.106	1392.88
418.216	1386.88
418.326	1326.88
418.436	1371.88
418.547	1344.88
418.657	1325.88
418.767	1412.88
418.877	1336.88
418.987	1366.88
419.098	1350.88
419.208	1415.88
419.318	1574.88
419.428	1397.88
419.538	1359.88
419.648	1456.88
419.759	1378.88
419.869	1417.88
419.979	1458.88
420.089	1414.88
420.199	1321.88
420.309	1385.88
420.419	1505.88
420.529	1389.88
420.639	1855.88
420.749	1529.88
420.859	1438.88
420.969	1438.88
421.079	1753.88
421.189	1500.88
421.299	1454.88
421.409	1430.88
421.519	1571.88
421.629	1566.88
421.739	1484.88
421.849	1506.88
421.959	1469.88
422.069	1581.88
422.179	1574.88
422.289	1533.88
422.399	1621.88
422.509	1792.88
422.619	5164.88
422.729	1956.88
422.838	1634.88
422.948	1643.88
423.058	1610.88
423.168	1630.88
423.278	1745.88
423.388	1749.88
423.498	1778.88
423.607	1800.88
423.717	2022.88
423.827	2034.88
423.937	1817.88
424.046	1898.88
424.156	1860.88
424.266	1772.88
424.376	2087.88
424.485	1922.88
424.595	1858.88
424.705	1830.88
424.815	1803.88
424.924	2321.88
425.034	1985.88
425.144	1777.88
425.253	1862.88
425.363	1919.88
425.473	1873.88
425.582	1821.88
425.692	1815.88
425.801	1850.88
425.911	2038.88
426.021	1887.88
426.13	1998.88
426.24	2064.88
426.349	2010.88
426.459	1939.88
426.568	1882.88
426.678	2121.88
426.787	2017.88
426.897	1878.88
427.006	1993.88
427.116	2040.88
427.225	1993.88
427.335	2082.88
427.444	1931.88
427.554	2096.88
427.663	2090.88
427.773	2008.88
427.882	2143.88
427.992	2034.88
428.101	2092.88
428.21	2090.88
428.32	2065.88
428.429	1973.88
428.539	2353.88
428.648	2135.88
428.757	2205.88
428.867	2229.88
428.976	2399.88
429.085	2213.88
429.195	2211.88
429.304	2170.88
429.413	2281.88
429.523	2309.88
429.632	2320.88
429.741	2287.88
429.85	2222.88
429.96	2302.88
430.069	2232.88
430.178	2240.88
430.287	2614.88
430.397	2401.88
430.506	2365.88
430.615	2275.88
430.724	2388.88
430.833	2358.88
430.943	2362.88
431.052	2448.88
431.161	2456.88
431.27	2485.88
431.379	2474.88
431.488	2749.88
431.597	2640.88
431.706	2701.88
431.816	2644.88
431.925	2541.88
432.034	2535.88
432.143	2681.88
432.252	2640.88
432.361	2665.88
432.47	2677.88
432.579	2704.88
432.688	2619.88
432.797	2627.88
432.906	2508.88
433.015	2659.88
433.124	3012.88
433.233	2764.88
433.342	2727.88
433.451	2680.88
433.56	2752.88
433.669	2618.88
433.778	2731.88
433.886	2731.88
433.995	2764.88
434.104	2960.88
434.213	2866.88
434.322	2944.88
434.431	3085.88
434.54	3093.88
434.649	3348.88
434.757	3115.88
434.866	3086.88
434.975	3076.88
435.084	2999.88
435.193	2892.88
435.301	3194.88
435.41	3188.88
435.519	3210.88
435.628	2741.88
435.737	2711.88
435.845	2670.88
435.954	2458.88
436.063	2655.88
436.171	2571.88
436.28	2588.88
436.389	2769.88
436.498	2576.88
436.606	2584.88
436.715	2794.88
436.823	2553.88
436.932	2483.88
437.041	2491.88
437.149	2635.88
437.258	2345.88
437.367	2419.88
437.475	2437.88
437.584	2653.88
437.692	2365.88
437.801	4025.88
437.91	2506.88
438.018	2396.88
438.127	2354.88
438.235	2429.88
438.344	2308.88
438.452	2345.88
438.561	2297.88
438.669	2356.88
438.778	2227.88
438.886	2395.88
438.995	2287.88
439.103	2327.88
439.212	2350.88
439.32	2366.88
439.428	2353.88
439.537	2342.88
439.645	2460.88
439.754	2457.88
439.862	2358.88
439.97	2449.88
440.079	2458.88
440.187	2268.88
440.295	2623.88
440.404	2393.88
440.512	2501.88
440.62	2595.88
440.729	2529.88
440.837	2662.88
440.945	3344.88
441.054	2793.88
441.162	2684.88
441.27	2867.88
441.378	2829.88
441.487	2719.88
441.595	3279.88
441.703	3004.88
441.811	2793.88
441.92	2741.88
442.028	2645.88
442.136	2629.88
442.244	2713.88
442.352	2767.88
442.461	2598.88
442.569	2615.88
442.677	2677.88
442.785	2731.88
442.893	2611.88
443.001	2589.88
443.109	2611.88
443.217	2554.88
443.325	2598.88
443.434	3282.88
443.542	3073.88
443.65	2722.88
443.758	2922.88
443.866	2794.88
443.974	3229.88
444.082	2982.88
444.19	3071.88
444.298	3156.88
444.406	3285.88
444.514	3399.88
444.622	3333.88
444.73	3349.88
444.838	3257.88
444.946	3128.88
445.054	2960.88
445.161	2948.88
445.269	2824.88
445.377	2866.88
445.485	2827.88
445.593	2761.88
445.701	2901.88
445.809	2868.88
445.917	2719.88
446.025	2585.88
446.132	2760.88
446.24	2820.88
446.348	2683.88
446.456	2591.88
446.564	2587.88
446.671	2730.88
446.779	2526.88
446.887	2524.88
446.995	2607.88
447.102	2627.88
447.21	2650.88
447.318	2650.88
447.426	2524.88
447.533	2824.88
447.641	3829.88
447.749	2608.88
447.856	2621.88
447.964	2581.88
448.072	2675.88
448.179	2527.88
448.287	2581.88
448.395	2651.88
448.502	2505.88
448.61	2623.88
448.718	2559.88
448.825	2680.88
448.933	2615.88
449.04	2606.88
449.148	2700.88
449.256	2604.88
449.363	2708.88
449.471	2667.88
449.578	2785.88
449.686	2668.88
449.793	2890.88
449.901	2667.88
450.008	2765.88
450.116	2896.88
450.223	2746.88
450.331	2914.88
450.438	2860.88
450.546	2897.88
450.653	2918.88
450.76	2980.88
450.868	3068.88
450.975	3228.88
451.083	2955.88
451.19	3104.88
451.297	2972.88
451.405	3078.88
451.512	3115.88
451.619	3173.88
451.727	3170.88
451.834	3076.88
451.941	3077.88
452.049	3044.88
452.156	3081.88
452.263	3291.88
452.371	3205.88
452.478	3224.88
452.585	3385.88
452.692	3118.88
452.8	3303.88
452.907	3443.88
453.014	3207.88
453.121	3213.88
453.229	3345.88
453.336	3396.88
453.443	3398.88
453.55	3271.88
453.657	3263.88
453.765	3428.88
453.872	3352.88
453.979	3451.88
454.086	3402.88
454.193	3473.88
454.3	3344.88
454.407	3520.88
454.514	3504.88
454.621	3455.88
454.729	3494.88
454.836	3426.88
454.943	3487.88
455.05	3579.88
455.157	3608.88
455.264	3500.88
455.371	3616.88
455.478	3510.88
455.585	3877.88
455.692	3739.88
455.799	3748.88
455.906	3666.88
456.013	3719.88
456.12	3577.88
456.227	3639.88
456.334	3865.88
456.44	3944.88
456.547	3746.88
456.654	3798.88
456.761	3821.88
456.868	3954.88
456.975	3882.88
457.082	3834.88
457.189	3777.88
457.296	3818.88
457.402	3955.88
457.509	3915.88
457.616	3968.88
457.723	4297.88
457.83	4126.88
457.936	4090.88
458.043	4481.88
458.15	4252.88
458.257	4298.88
458.363	4364.88
458.47	4477.88
458.577	4546.88
458.684	4485.88
458.79	4853.88
458.897	4826.88
459.004	5001.88
459.11	4921.88
459.217	5073.88
459.324	5166.88
459.43	5333.88
459.537	5584.88
459.644	5400.88
459.75	5442.88
459.857	5937.88
459.964	5615.88
460.07	5768.88
460.177	5954.88
460.283	5886.88
460.39	6029.88
460.496	5886.88
460.603	5966.88
460.71	5837.88
460.816	5769.88
460.923	5885.88
461.029	5807.88
461.136	5777.88
461.242	5803.88
461.349	5865.88
461.455	5801.88
461.562	6266.88
461.668	6015.88
461.774	5938.88
461.881	6174.88
461.987	6260.88
462.094	6387.88
462.2	6526.88
462.307	6499.88
462.413	6480.88
462.519	6604.88
462.626	7362.88
462.732	7387.88
462.838	7730.88
462.945	8044.88
463.051	7924.88
463.157	7470.88
463.264	7301.88
463.37	7131.88
463.476	6791.88
463.583	6811.88
463.689	6691.88
463.795	6720.88
463.901	6812.88
464.008	7036.88
464.114	6918.88
464.22	6815.88
464.326	6741.88
464.433	6594.88
464.539	6524.88
464.645	6305.88
464.751	6431.88
464.857	6096.88
464.963	5796.88
465.07	5677.88
465.176	5426.88
465.282	5274.88
465.388	5183.88
465.494	4902.88
465.6	4804.88
465.706	4765.88
465.812	4688.88
465.918	4787.88
466.024	4563.88
466.131	4647.88
466.237	4350.88
466.343	4335.88
466.449	4280.88
466.555	4229.88
466.661	4189.88
466.767	4198.88
466.873	4024.88
466.979	4240.88
467.085	4141.88
467.191	4176.88
467.296	4093.88
467.402	4120.88
467.508	4151.88
467.614	4142.88
467.72	3905.88
467.826	3940.88
467.932	3945.88
468.038	3778.88
468.144	3807.88
468.25	3767.88
468.355	3737.88
468.461	3769.88
468.567	3835.88
468.673	3656.88
468.779	3758.88
468.885	3669.88
468.99	3606.88
469.096	3808.88
469.202	3828.88
469.308	3763.88
469.413	3886.88
469.519	3894.88
469.625	3851.88
469.731	3907.88
469.836	3940.88
469.942	4074.88
470.048	3977.88
470.153	3997.88
470.259	4029.88
470.365	4090.88
470.47	4010.88
470.576	3986.88
470.682	3874.88
470.787	3759.88
470.893	3697.88
470.999	3661.88
471.104	3672.88
471.21	3544.88
471.315	3473.88
471.421	3453.88
471.527	3735.88
471.632	3603.88
471.738	3462.88
471.843	3396.88
471.949	3517.88
472.054	3361.88
472.16	3314.88
472.265	3323.88
472.371	3272.88
472.476	3311.88
472.582	3349.88
472.687	3189.88
472.793	3134.88
472.898	3208.88
473.003	3239.88
473.109	3178.88
473.214	3122.88
473.32	3133.88
473.425	3187.88
473.53	3101.88
473.636	3110.88
473.741	3102.88
473.847	3059.88
473.952	3124.88
474.057	3190.88
474.163	3129.88
474.268	3062.88
474.373	3197.88
474.478	3067.88
474.584	3080.88
474.689	3155.88
474.794	3134.88
474.9	3484.88
475.005	3115.88
475.11	3350.88
475.215	3158.88
475.321	3142.88
475.426	3365.88
475.531	3310.88
475.636	3151.88
475.741	3177.88
475.846	3386.88
475.952	3482.88
476.057	3337.88
476.162	3301.88
476.267	3389.88
476.372	3597.88
476.477	3310.88
476.582	3429.88
476.687	3294.88
476.793	3462.88
476.898	3297.88
477.003	3456.88
477.108	3525.88
477.213	3330.88
477.318	3527.88
477.423	3691.88
477.528	3727.88
477.633	3789.88
477.738	3819.88
477.843	3686.88
477.948	3709.88
478.053	3798.88
478.158	3826.88
478.263	3886.88
478.368	3923.88
478.473	4097.88
478.578	4022.88
478.682	3988.88
478.787	4148.88
478.892	4062.88
478.997	4187.88
479.102	4011.88
479.207	4084.88
479.312	4174.88
479.417	4185.88
479.521	4090.88
479.626	4239.88
479.731	4173.88
479.836	4246.88
479.941	4509.88
480.045	4503.88
480.15	4651.88
480.255	4567.88
480.36	4526.88
480.465	4603.88
480.569	4683.88
480.674	4378.88
480.779	4308.88
480.883	4349.88
480.988	4373.88
481.093	4341.88
481.197	4354.88
481.302	4275.88
481.407	4285.88
481.511	6539.88
481.616	4456.88
481.721	4339.88
481.825	4555.88
481.93	4320.88
482.035	4286.88
482.139	4401.88
482.244	4427.88
482.348	4368.88
482.453	4432.88
482.557	4471.88
482.662	4434.88
482.767	4498.88
482.871	4531.88
482.976	4551.88
483.08	4574.88
483.185	4772.88
483.289	4646.88
483.394	4641.88
483.498	4825.88
483.603	4806.88
483.707	4790.88
483.811	4850.88
483.916	5050.88
484.02	4907.88
484.125	5060.88
484.229	5127.88
484.333	5236.88
484.438	5084.88
484.542	5194.88
484.647	5200.88
484.751	5243.88
484.855	5332.88
484.96	5466.88
485.064	5468.88
485.168	5511.88
485.273	5516.88
485.377	5580.88
485.481	5799.88
485.585	5702.88
485.69	5594.88
485.794	5804.88
485.898	5828.88
486.002	5620.88
486.107	5645.88
486.211	5708.88
486.315	5803.88
486.419	5791.88
486.524	5784.88
486.628	5781.88
486.732	5686.88
486.836	5769.88
486.94	5830.88
487.044	5813.88
487.148	5709.88
487.253	5786.88
487.357	5807.88
487.461	5985.88
487.565	5882.88
487.669	5862.88
487.773	5763.88
487.877	5855.88
487.981	5934.88
488.085	5822.88
488.189	5756.88
488.293	5958.88
488.397	6282.88
488.501	5820.88
488.605	5817.88
488.709	5897.88
488.813	5669.88
488.917	5830.88
489.021	5827.88
489.125	6032.88
489.229	5826.88
489.333	5950.88
489.437	5788.88
489.541	5771.88
489.645	5772.88
489.749	5794.88
489.853	5962.88
489.956	5795.88
490.06	5764.88
490.164	5782.88
490.268	5801.88
490.372	5897.88
490.476	5785.88
490.579	5864.88
490.683	6534.88
490.787	5888.88
490.891	5748.88
490.995	5860.88
491.098	5826.88
491.202	5827.88
491.306	5899.88
491.41	5753.88
491.513	5764.88
491.617	5720.88
491.721	6072.88
491.824	5969.88
491.928	5749.88
492.032	6099.88
492.136	5818.88
492.239	5729.88
492.343	5873.88
492.446	6305.88
492.55	5830.88
492.654	5788.88
492.757	5801.88
492.861	5808.88
492.965	5787.88
493.068	5933.88
493.172	5841.88
493.275	5847.88
493.379	5840.88
493.482	5922.88
493.586	5919.88
493.689	6051.88
493.793	5814.88
493.896	5986.88
494	6021.88
494.103	5943.88
494.207	6204.88
494.31	6254.88
494.414	6009.88
494.517	5792.88
494.621	5775.88
494.724	5778.88
494.828	5758.88
494.931	5674.88
495.034	5702.88
495.138	5906.88
495.241	5668.88
495.345	6668.88
495.448	5854.88
495.551	5523.88
495.655	5621.88
495.758	5703.88
495.861	5655.88
495.965	5669.88
496.068	5747.88
496.171	5773.88
496.274	5599.88
496.378	5832.88
496.481	5821.88
496.584	5817.88
496.687	5912.88
496.791	5939.88
496.894	5973.88
496.997	5893.88
497.1	5988.88
497.204	6144.88
497.307	6057.88
497.41	6341.88
497.513	6448.88
497.616	6366.88
497.719	6494.88
497.823	6507.88
497.926	6538.88
498.029	6774.88
498.132	6829.88
498.235	7065.88
498.338	7293.88
498.441	7576.88
498.544	7489.88
498.647	7894.88
498.75	8275.88
498.853	8489.88
498.956	8581.88
499.059	9083.88
499.163	9308.88
499.266	9814.88
499.369	10180.88
499.471	10680.88
499.574	11299.88
499.677	11756.88
499.78	12547.88
499.883	13336.88
499.986	13939.88
500.089	14481.88
500.192	14567.88
500.295	14567.88
500.398	14468.88
500.501	14219.88
500.604	13594.88
500.707	12989.88
500.809	12475.88
500.912	11859.88
501.015	11227.88
501.118	10517.88
501.221	9993.88
501.324	9412.88
501.426	9115.88
501.529	8569.88
501.632	8255.88
501.735	7881.88
501.837	7572.88
501.94	7283.88
502.043	7242.88
502.146	7009.88
502.248	6743.88
502.351	6678.88
502.454	6620.88
502.557	6396.88
502.659	6330.88
502.762	6079.88
502.865	5928.88
502.967	5728.88
503.07	5655.88
503.173	5698.88
503.275	5499.88
503.378	5524.88
503.48	5475.88
503.583	5432.88
503.686	5436.88
503.788	5653.88
503.891	5317.88
503.993	5624.88
504.096	5455.88
504.198	5429.88
504.301	5573.88
504.403	5587.88
504.506	5440.88
504.608	5345.88
504.711	5145.88
504.813	5053.88
504.916	4946.88
505.018	4668.88
505.121	4562.88
505.223	4592.88
505.326	4437.88
505.428	4578.88
505.531	4442.88
505.633	4384.88
505.735	4187.88
505.838	4216.88
505.94	4182.88
506.042	4121.88
506.145	4084.88
506.247	4225.88
506.35	4016.88
506.452	4177.88
506.554	4127.88
506.656	3974.88
506.759	4075.88
506.861	4008.88
506.963	3925.88
507.066	4043.88
507.168	4060.88
507.27	3922.88
507.372	3820.88
507.475	3907.88
507.577	3851.88
507.679	3844.88
507.781	3781.88
507.883	3752.88
507.986	3738.88
508.088	3786.88
508.19	3804.88
508.292	3754.88
508.394	3725.88
508.496	3808.88
508.598	3578.88
508.701	3692.88
508.803	3705.88
508.905	3611.88
509.007	3676.88
509.109	3771.88
509.211	3785.88
509.313	3590.88
509.415	3564.88
509.517	3605.88
509.619	3570.88
509.721	3674.88
509.823	3695.88
509.925	3780.88
510.027	3630.88
510.129	3653.88
510.231	3692.88
510.333	3509.88
510.435	3597.88
510.537	3603.88
510.639	3644.88
510.741	3591.88
510.843	3598.88
510.945	3627.88
511.047	3645.88
511.148	3657.88
511.25	3588.88
511.352	3628.88
511.454	3620.88
511.556	3680.88
511.658	3654.88
511.76	3706.88
511.861	3728.88
511.963	3543.88
512.065	3605.88
512.167	3571.88
512.268	3751.88
512.37	3678.88
512.472	3595.88
512.574	3599.88
512.676	3742.88
512.777	3673.88
512.879	3631.88
512.981	3669.88
513.082	3729.88
513.184	3693.88
513.286	4144.88
513.387	3819.88
513.489	3875.88
513.591	3785.88
513.692	3780.88
513.794	3764.88
513.896	3674.88
513.997	3635.88
514.099	3801.88
514.2	3852.88
514.302	3800.88
514.404	3802.88
514.505	3737.88
514.607	3899.88
514.708	3873.88
514.81	3990.88
514.911	3996.88
515.013	4044.88
515.114	3981.88
515.216	4013.88
515.317	4056.88
515.419	4070.88
515.52	4203.88
515.622	4220.88
515.723	4280.88
515.825	4405.88
515.926	4383.88
516.027	4409.88
516.129	4472.88
516.23	4438.88
516.332	4622.88
516.433	4692.88
516.534	4791.88
516.636	4793.88
516.737	4937.88
516.838	6225.88
516.94	5275.88
517.041	5358.88
517.142	5573.88
517.244	5658.88
517.345	5703.88
517.446	5646.88
517.547	5730.88
517.649	5610.88
517.75	5727.88
517.851	5649.88
517.952	5894.88
518.054	5619.88
518.155	5626.88
518.256	5309.88
518.357	5465.88
518.458	5070.88
518.56	5074.88
518.661	5023.88
518.762	4894.88
518.863	5011.88
518.964	4925.88
519.065	4636.88
519.166	4726.88
519.268	4558.88
519.369	4929.88
519.47	4538.88
519.571	4530.88
519.672	4467.88
519.773	4397.88
519.874	4458.88
519.975	4538.88
520.076	4410.88
520.177	4503.88
520.278	4350.88
520.379	4542.88
520.48	4370.88
520.581	4247.88
520.682	4384.88
520.783	4311.88
520.884	4386.88
520.985	4385.88
521.086	4339.88
521.187	4346.88
521.288	4305.88
521.389	4319.88
521.489	4316.88
521.59	4243.88
521.691	4323.88
521.792	4178.88
521.893	4414.88
521.994	4496.88
522.095	4256.88
522.195	4307.88
522.296	4377.88
522.397	4304.88
522.498	4243.88
522.599	4212.88
522.699	4318.88
522.8	4231.88
522.901	4267.88
523.002	4277.88
523.102	4605.88
523.203	4324.88
523.304	4441.88
523.405	4218.88
523.505	4275.88
523.606	4397.88
523.707	4268.88
523.807	4197.88
523.908	4250.88
524.009	4410.88
524.109	4317.88
524.21	4263.88
524.31	4441.88
524.411	4446.88
524.512	4442.88
524.612	4417.88
524.713	4602.88
524.813	4287.88
524.914	4606.88
525.014	9411.88
525.115	4704.88
525.216	4382.88
525.316	4411.88
525.417	4373.88
525.517	4333.88
525.618	4393.88
525.718	4281.88
525.819	4342.88
525.919	4358.88
526.019	4263.88
526.12	4381.88
526.22	4342.88
526.321	4338.88
526.421	4251.88
526.522	4390.88
526.622	4326.88
526.722	4323.88
526.823	4358.88
526.923	4422.88
527.023	4508.88
527.124	4354.88
527.224	4422.88
527.324	4306.88
527.425	4376.88
527.525	4334.88
527.625	4349.88
527.726	4347.88
527.826	4531.88
527.926	4302.88
528.026	4425.88
528.127	4399.88
528.227	4366.88
528.327	4449.88
528.427	4311.88
528.528	4441.88
528.628	4437.88
528.728	4331.88
528.828	4431.88
528.928	4575.88
529.029	4360.88
529.129	4406.88
529.229	4386.88
529.329	4430.88
529.429	4409.88
529.529	4534.88
529.629	4371.88
529.729	4361.88
529.829	4564.88
529.93	4390.88
530.03	4332.88
530.13	4399.88
530.23	4318.88
530.33	4408.88
530.43	4366.88
530.53	4410.88
530.63	4390.88
530.73	4268.88
530.83	4260.88
530.93	4371.88
531.03	4285.88
531.13	4503.88
531.23	4246.88
531.33	4423.88
531.429	4493.88
531.529	4558.88
531.629	4322.88
531.729	4320.88
531.829	4238.88
531.929	4251.88
532.029	4347.88
532.129	4209.88
532.229	4329.88
532.328	4302.88
532.428	4334.88
532.528	4206.88
532.628	4094.88
532.728	4184.88
532.827	4072.88
532.927	4182.88
533.027	4192.88
533.127	4342.88
533.227	4266.88
533.326	4170.88
533.426	4109.88
533.526	4294.88
533.625	4301.88
533.725	4490.88
533.825	4131.88
533.924	4114.88
534.024	4050.88
534.124	4033.88
534.223	4079.88
534.323	4441.88
534.423	4044.88
534.522	4073.88
534.622	3957.88
534.722	4059.88
534.821	4029.88
534.921	3900.88
535.02	3867.88
535.12	3980.88
535.219	4035.88
535.319	4009.88
535.419	3934.88
535.518	3817.88
535.618	3885.88
535.717	3962.88
535.817	3762.88
535.916	3663.88
536.016	3851.88
536.115	3780.88
536.215	3649.88
536.314	3733.88
536.413	3692.88
536.513	3685.88
536.612	3713.88
536.712	3530.88
536.811	3622.88
536.91	3609.88
537.01	3563.88
537.109	3715.88
537.209	3591.88
537.308	3659.88
537.407	3503.88
537.507	3621.88
537.606	3632.88
537.705	3465.88
537.805	3596.88
