Data from 28g_HRC06701__11__377.txt Node

Date: Thu Apr 18 02:20:42 CDT 2024
User: Estudiantes 2
Spectrometer: HR+C0670
Trigger mode: 4
Integration Time (sec): 1.000000E0
Scans to average: 1
Electric dark correction enabled: true
Nonlinearity correction enabled: false
Boxcar width: 0
XAxis mode: Wavelengths
Number of Pixels in Spectrum: 2048
>>>>>Begin Spectral Data<<<<<
407.81	-131.62
407.921	-131.62
408.032	-131.62
408.143	-121.62
408.254	-146.62
408.365	28.38
408.476	286.38
408.587	-42.62
408.699	-15.62
408.81	13.38
408.921	-78.62
409.032	-38.62
409.143	100.38
409.254	19.38
409.365	64.38
409.476	-14.62
409.587	-2.62
409.698	80.38
409.809	70.38
409.92	-10.62
410.031	-57.62
410.142	60.38
410.253	53.38
410.364	-2.62
410.475	52.38
410.585	465.38
410.696	435.38
410.807	446.38
410.918	496.38
411.029	507.38
411.14	463.38
411.251	471.38
411.362	560.38
411.472	494.38
411.583	502.38
411.694	602.38
411.805	487.38
411.916	523.38
412.026	620.38
412.137	506.38
412.248	476.38
412.359	539.38
412.47	419.38
412.58	418.38
412.691	525.38
412.802	503.38
412.912	494.38
413.023	489.38
413.134	543.38
413.245	530.38
413.355	453.38
413.466	478.38
413.577	485.38
413.687	580.38
413.798	427.38
413.909	527.38
414.019	453.38
414.13	503.38
414.24	437.38
414.351	552.38
414.462	653.38
414.572	566.38
414.683	530.38
414.793	457.38
414.904	876.38
415.014	479.38
415.125	441.38
415.235	533.38
415.346	607.38
415.456	574.38
415.567	481.38
415.677	560.38
415.788	537.38
415.898	441.38
416.009	520.38
416.119	504.38
416.23	464.38
416.34	488.38
416.45	504.38
416.561	1304.38
416.671	671.38
416.782	398.38
416.892	471.38
417.002	525.38
417.113	618.38
417.223	515.38
417.333	477.38
417.444	525.38
417.554	529.38
417.664	552.38
417.775	473.38
417.885	507.38
417.995	543.38
418.106	692.38
418.216	559.38
418.326	561.38
418.436	520.38
418.547	568.38
418.657	485.38
418.767	608.38
418.877	595.38
418.987	524.38
419.098	572.38
419.208	569.38
419.318	627.38
419.428	638.38
419.538	534.38
419.648	567.38
419.759	577.38
419.869	619.38
419.979	593.38
420.089	566.38
420.199	547.38
420.309	654.38
420.419	590.38
420.529	542.38
420.639	1128.38
420.749	637.38
420.859	638.38
420.969	627.38
421.079	884.38
421.189	639.38
421.299	629.38
421.409	584.38
421.519	680.38
421.629	695.38
421.739	637.38
421.849	530.38
421.959	561.38
422.069	668.38
422.179	579.38
422.289	596.38
422.399	642.38
422.509	697.38
422.619	4128.38
422.729	973.38
422.838	604.38
422.948	611.38
423.058	614.38
423.168	664.38
423.278	604.38
423.388	664.38
423.498	700.38
423.607	647.38
423.717	932.38
423.827	984.38
423.937	700.38
424.046	762.38
424.156	791.38
424.266	743.38
424.376	895.38
424.485	838.38
424.595	724.38
424.705	667.38
424.815	696.38
424.924	1171.38
425.034	764.38
425.144	664.38
425.253	718.38
425.363	784.38
425.473	800.38
425.582	673.38
425.692	700.38
425.801	724.38
425.911	839.38
426.021	801.38
426.13	839.38
426.24	944.38
426.349	881.38
426.459	801.38
426.568	707.38
426.678	905.38
426.787	829.38
426.897	736.38
427.006	721.38
427.116	886.38
427.225	783.38
427.335	911.38
427.444	816.38
427.554	820.38
427.663	796.38
427.773	782.38
427.882	850.38
427.992	759.38
428.101	820.38
428.21	830.38
428.32	816.38
428.429	788.38
428.539	1135.38
428.648	813.38
428.757	869.38
428.867	883.38
428.976	1030.38
429.085	854.38
429.195	808.38
429.304	837.38
429.413	865.38
429.523	947.38
429.632	888.38
429.741	898.38
429.85	829.38
429.96	948.38
430.069	841.38
430.178	796.38
430.287	1218.38
430.397	889.38
430.506	891.38
430.615	966.38
430.724	914.38
430.833	909.38
430.943	953.38
431.052	959.38
431.161	887.38
431.27	897.38
431.379	927.38
431.488	1084.38
431.597	1002.38
431.706	1050.38
431.816	952.38
431.925	951.38
432.034	961.38
432.143	1007.38
432.252	1018.38
432.361	1106.38
432.47	999.38
432.579	1014.38
432.688	1003.38
432.797	1061.38
432.906	949.38
433.015	1016.38
433.124	1428.38
433.233	1048.38
433.342	1044.38
433.451	1065.38
433.56	1029.38
433.669	990.38
433.778	1018.38
433.886	1028.38
433.995	1018.38
434.104	1155.38
434.213	1124.38
434.322	994.38
434.431	1145.38
434.54	1126.38
434.649	1189.38
434.757	1121.38
434.866	1116.38
434.975	1184.38
435.084	1146.38
435.193	1155.38
435.301	1323.38
435.41	1411.38
435.519	1528.38
435.628	1097.38
435.737	964.38
435.845	1003.38
435.954	991.38
436.063	943.38
436.171	949.38
436.28	1002.38
436.389	1098.38
436.498	991.38
436.606	986.38
436.715	1159.38
436.823	935.38
436.932	896.38
437.041	964.38
437.149	930.38
437.258	924.38
437.367	923.38
437.475	863.38
437.584	1167.38
437.692	967.38
437.801	2522.38
437.91	1049.38
438.018	886.38
438.127	866.38
438.235	927.38
438.344	904.38
438.452	968.38
438.561	836.38
438.669	864.38
438.778	868.38
438.886	846.38
438.995	836.38
439.103	910.38
439.212	831.38
439.32	847.38
439.428	888.38
439.537	872.38
439.645	989.38
439.754	916.38
439.862	927.38
439.97	928.38
440.079	906.38
440.187	847.38
440.295	1035.38
440.404	895.38
440.512	994.38
440.62	943.38
440.729	1001.38
440.837	988.38
440.945	1657.38
441.054	1048.38
441.162	943.38
441.27	1096.38
441.378	992.38
441.487	967.38
441.595	1392.38
441.703	1069.38
441.811	1072.38
441.92	1018.38
442.028	959.38
442.136	1000.38
442.244	1034.38
442.352	973.38
442.461	900.38
442.569	939.38
442.677	940.38
442.785	946.38
442.893	997.38
443.001	988.38
443.109	954.38
443.217	947.38
443.325	970.38
443.434	1522.38
443.542	1184.38
443.65	992.38
443.758	1128.38
443.866	959.38
443.974	1297.38
444.082	1136.38
444.19	1036.38
444.298	1103.38
444.406	1234.38
444.514	1111.38
444.622	1148.38
444.73	1210.38
444.838	1160.38
444.946	1103.38
445.054	1049.38
445.161	1046.38
445.269	976.38
445.377	1039.38
445.485	1043.38
445.593	1011.38
445.701	1205.38
445.809	1145.38
445.917	1043.38
446.025	952.38
446.132	1092.38
446.24	1063.38
446.348	988.38
446.456	907.38
446.564	918.38
446.671	995.38
446.779	966.38
446.887	994.38
446.995	962.38
447.102	1013.38
447.21	1051.38
447.318	940.38
447.426	870.38
447.533	1219.38
447.641	2247.38
447.749	1104.38
447.856	1003.38
447.964	1011.38
448.072	1057.38
448.179	956.38
448.287	1058.38
448.395	1026.38
448.502	921.38
448.61	1017.38
448.718	940.38
448.825	1030.38
448.933	1017.38
449.04	951.38
449.148	972.38
449.256	993.38
449.363	1010.38
449.471	1006.38
449.578	1069.38
449.686	1046.38
449.793	1129.38
449.901	1002.38
450.008	1066.38
450.116	1032.38
450.223	1027.38
450.331	1132.38
450.438	1086.38
450.546	1037.38
450.653	1204.38
450.76	1181.38
450.868	1127.38
450.975	1298.38
451.083	1141.38
451.19	1098.38
451.297	1110.38
451.405	1203.38
451.512	1055.38
451.619	1224.38
451.727	1327.38
451.834	1152.38
451.941	1119.38
452.049	1092.38
452.156	1122.38
452.263	1186.38
452.371	1183.38
452.478	1288.38
452.585	1321.38
452.692	1114.38
452.8	1282.38
452.907	1303.38
453.014	1216.38
453.121	1187.38
453.229	1258.38
453.336	1221.38
453.443	1308.38
453.55	1249.38
453.657	1183.38
453.765	1313.38
453.872	1287.38
453.979	1304.38
454.086	1281.38
454.193	1335.38
454.3	1185.38
454.407	1338.38
454.514	1347.38
454.621	1276.38
454.729	1264.38
454.836	1252.38
454.943	1308.38
455.05	1325.38
455.157	1412.38
455.264	1279.38
455.371	1422.38
455.478	1328.38
455.585	1577.38
455.692	1366.38
455.799	1475.38
455.906	1371.38
456.013	1282.38
456.12	1318.38
456.227	1349.38
456.334	1475.38
456.44	1448.38
456.547	1376.38
456.654	1314.38
456.761	1394.38
456.868	1516.38
456.975	1475.38
457.082	1351.38
457.189	1377.38
457.296	1443.38
457.402	1386.38
457.509	1391.38
457.616	1498.38
457.723	1671.38
457.83	1507.38
457.936	1466.38
458.043	1894.38
458.15	1530.38
458.257	1659.38
458.363	1620.38
458.47	1587.38
458.577	1651.38
458.684	1606.38
458.79	1729.38
458.897	1721.38
459.004	1802.38
459.11	1756.38
459.217	1728.38
459.324	1852.38
459.43	1937.38
459.537	2033.38
459.644	1855.38
459.75	1832.38
459.857	2228.38
459.964	1979.38
460.07	2060.38
460.177	1983.38
460.283	2039.38
460.39	2227.38
460.496	2060.38
460.603	2074.38
460.71	2034.38
460.816	2002.38
460.923	1949.38
461.029	2099.38
461.136	2092.38
461.242	2035.38
461.349	2037.38
461.455	2008.38
461.562	2354.38
461.668	2176.38
461.774	2112.38
461.881	2206.38
461.987	2071.38
462.094	2207.38
462.2	2338.38
462.307	2234.38
462.413	2297.38
462.519	2278.38
462.626	2519.38
462.732	2409.38
462.838	2511.38
462.945	2615.38
463.051	2471.38
463.157	2444.38
463.264	2496.38
463.37	2420.38
463.476	2322.38
463.583	2345.38
463.689	2216.38
463.795	2259.38
463.901	2359.38
464.008	2411.38
464.114	2252.38
464.22	2266.38
464.326	2271.38
464.433	2112.38
464.539	2152.38
464.645	2160.38
464.751	2303.38
464.857	2078.38
464.963	2000.38
465.07	1947.38
465.176	1875.38
465.282	1875.38
465.388	1896.38
465.494	1697.38
465.6	1739.38
465.706	1647.38
465.812	1632.38
465.918	1753.38
466.024	1607.38
466.131	1649.38
466.237	1524.38
466.343	1506.38
466.449	1470.38
466.555	1469.38
466.661	1461.38
466.767	1407.38
466.873	1430.38
466.979	1622.38
467.085	1429.38
467.191	1442.38
467.296	1415.38
467.402	1451.38
467.508	1446.38
467.614	1502.38
467.72	1398.38
467.826	1335.38
467.932	1339.38
468.038	1355.38
468.144	1318.38
468.25	1302.38
468.355	1295.38
468.461	1424.38
468.567	1258.38
468.673	1309.38
468.779	1372.38
468.885	1291.38
468.99	1247.38
469.096	1352.38
469.202	1378.38
469.308	1330.38
469.413	1427.38
469.519	1329.38
469.625	1325.38
469.731	1330.38
469.836	1343.38
469.942	1483.38
470.048	1352.38
470.153	1405.38
470.259	1365.38
470.365	1449.38
470.47	1459.38
470.576	1359.38
470.682	1311.38
470.787	1338.38
470.893	1229.38
470.999	1293.38
471.104	1363.38
471.21	1209.38
471.315	1132.38
471.421	1193.38
471.527	1434.38
471.632	1276.38
471.738	1235.38
471.843	1146.38
471.949	1276.38
472.054	1254.38
472.16	1209.38
472.265	1160.38
472.371	1118.38
472.476	1195.38
472.582	1227.38
472.687	1104.38
472.793	1083.38
472.898	1169.38
473.003	1086.38
473.109	1083.38
473.214	1066.38
473.32	1076.38
473.425	1160.38
473.53	1166.38
473.636	1036.38
473.741	1060.38
473.847	1047.38
473.952	1039.38
474.057	1118.38
474.163	1136.38
474.268	1160.38
474.373	1165.38
474.478	1013.38
474.584	1114.38
474.689	1201.38
474.794	1109.38
474.9	1351.38
475.005	1054.38
475.11	1240.38
475.215	1058.38
475.321	1107.38
475.426	1282.38
475.531	1183.38
475.636	1108.38
475.741	1046.38
475.846	1181.38
475.952	1327.38
476.057	1139.38
476.162	1183.38
476.267	1308.38
476.372	1426.38
476.477	1108.38
476.582	1251.38
476.687	1107.38
476.793	1136.38
476.898	1144.38
477.003	1275.38
477.108	1128.38
477.213	1139.38
477.318	1238.38
477.423	1219.38
477.528	1304.38
477.633	1296.38
477.738	1272.38
477.843	1182.38
477.948	1236.38
478.053	1266.38
478.158	1197.38
478.263	1274.38
478.368	1281.38
478.473	1342.38
478.578	1304.38
478.682	1302.38
478.787	1332.38
478.892	1280.38
478.997	1397.38
479.102	1380.38
479.207	1281.38
479.312	1444.38
479.417	1335.38
479.521	1303.38
479.626	1438.38
479.731	1424.38
479.836	1300.38
479.941	1494.38
480.045	1520.38
480.15	1445.38
480.255	1407.38
480.36	1460.38
480.465	1492.38
480.569	1626.38
480.674	1439.38
480.779	1380.38
480.883	1331.38
480.988	1435.38
481.093	1377.38
481.197	1378.38
481.302	1374.38
481.407	1474.38
481.511	3306.38
481.616	1528.38
481.721	1444.38
481.825	1552.38
481.93	1397.38
482.035	1374.38
482.139	1427.38
482.244	1368.38
482.348	1374.38
482.453	1404.38
482.557	1445.38
482.662	1434.38
482.767	1397.38
482.871	1361.38
482.976	1386.38
483.08	1456.38
483.185	1601.38
483.289	1404.38
483.394	1415.38
483.498	1499.38
483.603	1386.38
483.707	1465.38
483.811	1586.38
483.916	1572.38
484.02	1490.38
484.125	1637.38
484.229	1570.38
484.333	1580.38
484.438	1544.38
484.542	1486.38
484.647	1469.38
484.751	1594.38
484.855	1528.38
484.96	1540.38
485.064	1626.38
485.168	1624.38
485.273	1571.38
485.377	1598.38
485.481	1861.38
485.585	1630.38
485.69	1630.38
485.794	1720.38
485.898	1700.38
486.002	1602.38
486.107	1668.38
486.211	1712.38
486.315	1705.38
486.419	1788.38
486.524	1758.38
486.628	1708.38
486.732	1665.38
486.836	1750.38
486.94	1762.38
487.044	1702.38
487.148	1751.38
487.253	1637.38
487.357	1671.38
487.461	1889.38
487.565	1715.38
487.669	1726.38
487.773	1719.38
487.877	1823.38
487.981	1751.38
488.085	1819.38
488.189	1802.38
488.293	1846.38
488.397	2215.38
488.501	1830.38
488.605	1705.38
488.709	1745.38
488.813	1735.38
488.917	1741.38
489.021	1704.38
489.125	2023.38
489.229	1768.38
489.333	1855.38
489.437	1847.38
489.541	1847.38
489.645	1770.38
489.749	1744.38
489.853	1859.38
489.956	1702.38
490.06	1779.38
490.164	1770.38
490.268	1801.38
490.372	1763.38
490.476	1802.38
490.579	1790.38
490.683	2434.38
490.787	1920.38
490.891	1812.38
490.995	1835.38
491.098	1842.38
491.202	1825.38
491.306	1858.38
491.41	1852.38
491.513	1792.38
491.617	1833.38
491.721	1908.38
491.824	2038.38
491.928	1885.38
492.032	2084.38
492.136	1871.38
492.239	1832.38
492.343	1817.38
492.446	2270.38
492.55	1922.38
492.654	1768.38
492.757	1729.38
492.861	1917.38
492.965	1874.38
493.068	1860.38
493.172	1834.38
493.275	1845.38
493.379	1824.38
493.482	1929.38
493.586	2024.38
493.689	2094.38
493.793	1881.38
493.896	2044.38
494	1932.38
494.103	1974.38
494.207	2223.38
494.31	2361.38
494.414	1968.38
494.517	1916.38
494.621	1871.38
494.724	1819.38
494.828	1861.38
494.931	1881.38
495.034	1843.38
495.138	2048.38
495.241	1862.38
495.345	2610.38
495.448	1976.38
495.551	1841.38
495.655	1887.38
495.758	1842.38
495.861	1847.38
495.965	1887.38
496.068	1895.38
496.171	1940.38
496.274	1891.38
496.378	1877.38
496.481	1921.38
496.584	1859.38
496.687	1947.38
496.791	1941.38
496.894	2016.38
496.997	1983.38
497.1	2039.38
497.204	2056.38
497.307	1942.38
497.41	2262.38
497.513	2268.38
497.616	2069.38
497.719	2110.38
497.823	2136.38
497.926	2148.38
498.029	2280.38
498.132	2231.38
498.235	2291.38
498.338	2340.38
498.441	2503.38
498.544	2420.38
498.647	2583.38
498.75	2670.38
498.853	2787.38
498.956	2756.38
499.059	3016.38
499.163	2829.38
499.266	3111.38
499.369	3128.38
499.471	3216.38
499.574	3402.38
499.677	3600.38
499.78	3809.38
499.883	3745.38
499.986	4141.38
500.089	4155.38
500.192	4141.38
500.295	4322.38
500.398	4223.38
500.501	4171.38
500.604	3968.38
500.707	3849.38
500.809	3703.38
500.912	3609.38
501.015	3507.38
501.118	3206.38
501.221	3261.38
501.324	3051.38
501.426	2896.38
501.529	2728.38
501.632	2732.38
501.735	2514.38
501.837	2473.38
501.94	2408.38
502.043	2316.38
502.146	2337.38
502.248	2288.38
502.351	2168.38
502.454	2180.38
502.557	2057.38
502.659	2153.38
502.762	1923.38
502.865	1948.38
502.967	1943.38
503.07	1905.38
503.173	1929.38
503.275	1857.38
503.378	1828.38
503.48	1750.38
503.583	1884.38
503.686	1774.38
503.788	2020.38
503.891	1784.38
503.993	1996.38
504.096	1728.38
504.198	1771.38
504.301	1762.38
504.403	1734.38
504.506	1731.38
504.608	1734.38
504.711	1678.38
504.813	1684.38
504.916	1709.38
505.018	1622.38
505.121	1501.38
505.223	1572.38
505.326	1543.38
505.428	1629.38
505.531	1485.38
505.633	1529.38
505.735	1431.38
505.838	1397.38
505.94	1415.38
506.042	1344.38
506.145	1347.38
506.247	1456.38
506.35	1403.38
506.452	1413.38
506.554	1370.38
506.656	1448.38
506.759	1286.38
506.861	1375.38
506.963	1309.38
507.066	1309.38
507.168	1396.38
507.27	1360.38
507.372	1249.38
507.475	1307.38
507.577	1339.38
507.679	1314.38
507.781	1218.38
507.883	1282.38
507.986	1315.38
508.088	1253.38
508.19	1279.38
508.292	1330.38
508.394	1245.38
508.496	1175.38
508.598	1280.38
508.701	1244.38
508.803	1194.38
508.905	1204.38
509.007	1245.38
509.109	1315.38
509.211	1289.38
509.313	1239.38
509.415	1164.38
509.517	1216.38
509.619	1218.38
509.721	1196.38
509.823	1142.38
509.925	1332.38
510.027	1201.38
510.129	1227.38
510.231	1259.38
510.333	1176.38
510.435	1137.38
510.537	1249.38
510.639	1298.38
510.741	1134.38
510.843	1247.38
510.945	1187.38
511.047	1235.38
511.148	1188.38
511.25	1187.38
511.352	1230.38
511.454	1135.38
511.556	1286.38
511.658	1223.38
511.76	1275.38
511.861	1315.38
511.963	1199.38
512.065	1175.38
512.167	1156.38
512.268	1416.38
512.37	1231.38
512.472	1184.38
512.574	1291.38
512.676	1341.38
512.777	1164.38
512.879	1210.38
512.981	1194.38
513.082	1191.38
513.184	1223.38
513.286	1655.38
513.387	1331.38
513.489	1382.38
513.591	1339.38
513.692	1284.38
513.794	1294.38
513.896	1191.38
513.997	1253.38
514.099	1243.38
514.2	1260.38
514.302	1288.38
514.404	1216.38
514.505	1201.38
514.607	1375.38
514.708	1292.38
514.81	1370.38
514.911	1435.38
515.013	1446.38
515.114	1316.38
515.216	1357.38
515.317	1372.38
515.419	1332.38
515.52	1358.38
515.622	1359.38
515.723	1397.38
515.825	1473.38
515.926	1490.38
516.027	1430.38
516.129	1414.38
516.23	1521.38
516.332	1471.38
516.433	1492.38
516.534	1628.38
516.636	1564.38
516.737	1494.38
516.838	2619.38
516.94	1803.38
517.041	1624.38
517.142	1901.38
517.244	1967.38
517.345	1839.38
517.446	1826.38
517.547	1884.38
517.649	1761.38
517.75	1781.38
517.851	1736.38
517.952	2038.38
518.054	1738.38
518.155	1879.38
518.256	1697.38
518.357	1816.38
518.458	1605.38
518.56	1618.38
518.661	1659.38
518.762	1587.38
518.863	1770.38
518.964	1656.38
519.065	1498.38
519.166	1558.38
519.268	1474.38
519.369	1746.38
519.47	1501.38
519.571	1548.38
519.672	1407.38
519.773	1424.38
519.874	1485.38
519.975	1512.38
520.076	1499.38
520.177	1555.38
520.278	1474.38
520.379	1455.38
520.48	1413.38
520.581	1417.38
520.682	1378.38
520.783	1382.38
520.884	1531.38
520.985	1445.38
521.086	1466.38
521.187	1516.38
521.288	1437.38
521.389	1436.38
521.489	1443.38
521.59	1406.38
521.691	1445.38
521.792	1405.38
521.893	1559.38
521.994	1572.38
522.095	1460.38
522.195	1516.38
522.296	1542.38
522.397	1485.38
522.498	1496.38
522.599	1355.38
522.699	1430.38
522.8	1423.38
522.901	1512.38
523.002	1393.38
523.102	1634.38
523.203	1459.38
523.304	1547.38
523.405	1428.38
523.505	1465.38
523.606	1464.38
523.707	1489.38
523.807	1459.38
523.908	1384.38
524.009	1549.38
524.109	1444.38
524.21	1400.38
524.31	1513.38
524.411	1560.38
524.512	1575.38
524.612	1444.38
524.713	1659.38
524.813	1477.38
524.914	1682.38
525.014	6410.38
525.115	1947.38
525.216	1399.38
525.316	1445.38
525.417	1512.38
525.517	1411.38
525.618	1404.38
525.718	1414.38
525.819	1426.38
525.919	1491.38
526.019	1444.38
526.12	1568.38
526.22	1371.38
526.321	1395.38
526.421	1389.38
526.522	1348.38
526.622	1388.38
526.722	1391.38
526.823	1523.38
526.923	1434.38
527.023	1595.38
527.124	1490.38
527.224	1571.38
527.324	1363.38
527.425	1509.38
527.525	1322.38
527.625	1453.38
527.726	1490.38
527.826	1526.38
527.926	1437.38
528.026	1486.38
528.127	1423.38
528.227	1423.38
528.327	1543.38
528.427	1482.38
528.528	1443.38
528.628	1451.38
528.728	1543.38
528.828	1524.38
528.928	1558.38
529.029	1524.38
529.129	1468.38
529.229	1443.38
529.329	1527.38
529.429	1599.38
529.529	1559.38
529.629	1557.38
529.729	1434.38
529.829	1607.38
529.93	1424.38
530.03	1487.38
530.13	1408.38
530.23	1452.38
530.33	1585.38
530.43	1410.38
530.53	1493.38
530.63	1542.38
530.73	1382.38
530.83	1343.38
530.93	1395.38
531.03	1332.38
531.13	1447.38
531.23	1377.38
531.33	1468.38
531.429	1463.38
531.529	1575.38
531.629	1566.38
531.729	1363.38
531.829	1387.38
531.929	1361.38
532.029	1428.38
532.129	1337.38
532.229	1464.38
532.328	1449.38
532.428	1370.38
532.528	1295.38
532.628	1381.38
532.728	1317.38
532.827	1328.38
532.927	1430.38
533.027	1338.38
533.127	1508.38
533.227	1432.38
533.326	1380.38
533.426	1319.38
533.526	1503.38
533.625	1571.38
533.725	1630.38
533.825	1448.38
533.924	1374.38
534.024	1280.38
534.124	1323.38
534.223	1387.38
534.323	1763.38
534.423	1361.38
534.522	1373.38
534.622	1237.38
534.722	1280.38
534.821	1386.38
534.921	1325.38
535.02	1234.38
535.12	1361.38
535.219	1403.38
535.319	1307.38
535.419	1288.38
535.518	1228.38
535.618	1269.38
535.717	1317.38
535.817	1208.38
535.916	1139.38
536.016	1291.38
536.115	1239.38
536.215	1247.38
536.314	1178.38
536.413	1106.38
536.513	1221.38
536.612	1141.38
536.712	1111.38
536.811	1222.38
536.91	1116.38
537.01	1135.38
537.109	1205.38
537.209	1169.38
537.308	1109.38
537.407	1150.38
537.507	1226.38
537.606	1170.38
537.705	1170.38
537.805	1262.38
537.904	1043.38
538.003	1180.38
538.102	1264.38
538.202	1142.38
538.301	1227.38
538.4	1237.38
538.499	1177.38
538.599	1182.38
538.698	1358.38
538.797	1154.38
538.896	1241.38
538.995	1200.38
539.095	1142.38
539.194	1316.38
539.293	1117.38
539.392	1193.38
539.491	1120.38
