Data from 28g_HRC06701__15__381.txt Node

Date: Thu Apr 18 02:20:46 CDT 2024
User: Estudiantes 2
Spectrometer: HR+C0670
Trigger mode: 4
Integration Time (sec): 1.000000E0
Scans to average: 1
Electric dark correction enabled: true
Nonlinearity correction enabled: false
Boxcar width: 0
XAxis mode: Wavelengths
Number of Pixels in Spectrum: 2048
>>>>>Begin Spectral Data<<<<<
407.81	-141.38
407.921	-141.38
408.032	-141.38
408.143	-124.38
408.254	-119.38
408.365	12.62
408.476	255.62
408.587	-11.38
408.699	-37.38
408.81	-3.38
408.921	-39.38
409.032	-24.38
409.143	26.62
409.254	87.62
409.365	83.62
409.476	-62.38
409.587	29.62
409.698	67.62
409.809	77.62
409.92	-36.38
410.031	-1.38
410.142	45.62
410.253	24.62
410.364	85.62
410.475	234.62
410.585	1332.62
410.696	1534.62
410.807	1424.62
410.918	1420.62
411.029	1545.62
411.14	1537.62
411.251	1482.62
411.362	1559.62
411.472	1580.62
411.583	1500.62
411.694	1632.62
411.805	1571.62
411.916	1548.62
412.026	1587.62
412.137	1580.62
412.248	1554.62
412.359	1549.62
412.47	1522.62
412.58	1434.62
412.691	1480.62
412.802	1490.62
412.912	1494.62
413.023	1489.62
413.134	1445.62
413.245	1638.62
413.355	1496.62
413.466	1408.62
413.577	1483.62
413.687	1509.62
413.798	1377.62
413.909	1552.62
414.019	1479.62
414.13	1480.62
414.24	1429.62
414.351	1627.62
414.462	1666.62
414.572	1622.62
414.683	1680.62
414.793	1535.62
414.904	1829.62
415.014	1557.62
415.125	1419.62
415.235	1515.62
415.346	1721.62
415.456	1654.62
415.567	1522.62
415.677	1511.62
415.788	1570.62
415.898	1464.62
416.009	1485.62
416.119	1565.62
416.23	1498.62
416.34	1491.62
416.45	1521.62
416.561	2340.62
416.671	1638.62
416.782	1492.62
416.892	1504.62
417.002	1505.62
417.113	1582.62
417.223	1607.62
417.333	1509.62
417.444	1564.62
417.554	1664.62
417.664	1629.62
417.775	1550.62
417.885	1625.62
417.995	1684.62
418.106	1765.62
418.216	1687.62
418.326	1722.62
418.436	1755.62
418.547	1771.62
418.657	1735.62
418.767	1828.62
418.877	1752.62
418.987	1831.62
419.098	1757.62
419.208	1728.62
419.318	1872.62
419.428	1776.62
419.538	1684.62
419.648	1840.62
419.759	1807.62
419.869	1783.62
419.979	1742.62
420.089	1822.62
420.199	1742.62
420.309	1783.62
420.419	1851.62
420.529	1760.62
420.639	2184.62
420.749	1852.62
420.859	1845.62
420.969	1829.62
421.079	2090.62
421.189	1898.62
421.299	1846.62
421.409	1800.62
421.519	1946.62
421.629	1970.62
421.739	1851.62
421.849	1856.62
421.959	1781.62
422.069	1890.62
422.179	1944.62
422.289	1913.62
422.399	1971.62
422.509	2076.62
422.619	5602.62
422.729	2249.62
422.838	2021.62
422.948	2065.62
423.058	1978.62
423.168	2042.62
423.278	2144.62
423.388	2118.62
423.498	2242.62
423.607	2188.62
423.717	2453.62
423.827	2512.62
423.937	2251.62
424.046	2354.62
424.156	2308.62
424.266	2254.62
424.376	2482.62
424.485	2333.62
424.595	2254.62
424.705	2257.62
424.815	2224.62
424.924	2678.62
425.034	2363.62
425.144	2211.62
425.253	2237.62
425.363	2344.62
425.473	2285.62
425.582	2136.62
425.692	2244.62
425.801	2200.62
425.911	2430.62
426.021	2381.62
426.13	2456.62
426.24	2516.62
426.349	2433.62
426.459	2406.62
426.568	2315.62
426.678	2476.62
426.787	2378.62
426.897	2302.62
427.006	2366.62
427.116	2460.62
427.225	2472.62
427.335	2510.62
427.444	2395.62
427.554	2481.62
427.663	2439.62
427.773	2389.62
427.882	2518.62
427.992	2451.62
428.101	2451.62
428.21	2460.62
428.32	2535.62
428.429	2458.62
428.539	2792.62
428.648	2601.62
428.757	2577.62
428.867	2617.62
428.976	2792.62
429.085	2552.62
429.195	2506.62
429.304	2688.62
429.413	2652.62
429.523	2688.62
429.632	2701.62
429.741	2664.62
429.85	2508.62
429.96	2706.62
430.069	2747.62
430.178	2681.62
430.287	2994.62
430.397	2813.62
430.506	2715.62
430.615	2694.62
430.724	2859.62
430.833	2769.62
430.943	2704.62
431.052	2873.62
431.161	2859.62
431.27	2983.62
431.379	2852.62
431.488	3178.62
431.597	3036.62
431.706	3099.62
431.816	3030.62
431.925	2991.62
432.034	2937.62
432.143	3073.62
432.252	2931.62
432.361	3036.62
432.47	2996.62
432.579	2971.62
432.688	2936.62
432.797	3046.62
432.906	2904.62
433.015	3051.62
433.124	3380.62
433.233	3113.62
433.342	3168.62
433.451	3101.62
433.56	2984.62
433.669	3099.62
433.778	3047.62
433.886	3212.62
433.995	3203.62
434.104	3320.62
434.213	3249.62
434.322	3336.62
434.431	3460.62
434.54	3455.62
434.649	3749.62
434.757	3601.62
434.866	3544.62
434.975	3467.62
435.084	3382.62
435.193	3348.62
435.301	3567.62
435.41	3525.62
435.519	3521.62
435.628	3037.62
435.737	3013.62
435.845	2893.62
435.954	2817.62
436.063	2968.62
436.171	2912.62
436.28	2902.62
436.389	3055.62
436.498	2898.62
436.606	2927.62
436.715	3040.62
436.823	2866.62
436.932	2745.62
437.041	2747.62
437.149	2839.62
437.258	2671.62
437.367	2616.62
437.475	2752.62
437.584	2888.62
437.692	2715.62
437.801	4325.62
437.91	2805.62
438.018	2603.62
438.127	2596.62
438.235	2731.62
438.344	2657.62
438.452	2611.62
438.561	2589.62
438.669	2568.62
438.778	2555.62
438.886	2700.62
438.995	2544.62
439.103	2606.62
439.212	2681.62
439.32	2748.62
439.428	2605.62
439.537	2640.62
439.645	2773.62
439.754	2721.62
439.862	2637.62
439.97	2796.62
440.079	2720.62
440.187	2662.62
440.295	2852.62
440.404	2679.62
440.512	2741.62
440.62	2790.62
440.729	2877.62
440.837	2840.62
440.945	3541.62
441.054	3083.62
441.162	2977.62
441.27	3259.62
441.378	3104.62
441.487	3085.62
441.595	3522.62
441.703	3237.62
441.811	3164.62
441.92	3045.62
442.028	2892.62
442.136	3032.62
442.244	2999.62
442.352	3019.62
442.461	2962.62
442.569	2840.62
442.677	2839.62
442.785	2953.62
442.893	2922.62
443.001	2866.62
443.109	2939.62
443.217	2872.62
443.325	2827.62
443.434	3554.62
443.542	3251.62
443.65	3000.62
443.758	3213.62
443.866	3158.62
443.974	3520.62
444.082	3222.62
444.19	3415.62
444.298	3452.62
444.406	3593.62
444.514	3672.62
444.622	3740.62
444.73	3655.62
444.838	3584.62
444.946	3502.62
445.054	3293.62
445.161	3209.62
445.269	3190.62
445.377	3125.62
445.485	3100.62
445.593	3174.62
445.701	3234.62
445.809	3042.62
445.917	3050.62
446.025	2934.62
446.132	3034.62
446.24	3091.62
446.348	3021.62
446.456	2827.62
446.564	2942.62
446.671	3030.62
446.779	2888.62
446.887	2823.62
446.995	2866.62
447.102	2905.62
447.21	2858.62
447.318	2882.62
447.426	2692.62
447.533	2994.62
447.641	4069.62
447.749	2988.62
447.856	2810.62
447.964	2838.62
448.072	2964.62
448.179	2753.62
448.287	2854.62
448.395	2941.62
448.502	2711.62
448.61	2877.62
448.718	2879.62
448.825	2847.62
448.933	2800.62
449.04	2871.62
449.148	2895.62
449.256	2830.62
449.363	2885.62
449.471	2956.62
449.578	2991.62
449.686	2929.62
449.793	3185.62
449.901	2995.62
450.008	3012.62
450.116	3073.62
450.223	3040.62
450.331	3090.62
450.438	3188.62
450.546	3200.62
450.653	3225.62
450.76	3296.62
450.868	3385.62
450.975	3519.62
451.083	3323.62
451.19	3434.62
451.297	3316.62
451.405	3330.62
451.512	3404.62
451.619	3467.62
451.727	3476.62
451.834	3364.62
451.941	3398.62
452.049	3357.62
452.156	3455.62
452.263	3448.62
452.371	3436.62
452.478	3445.62
452.585	3627.62
452.692	3414.62
452.8	3426.62
452.907	3619.62
453.014	3521.62
453.121	3494.62
453.229	3579.62
453.336	3634.62
453.443	3555.62
453.55	3484.62
453.657	3555.62
453.765	3674.62
453.872	3582.62
453.979	3736.62
454.086	3656.62
454.193	3645.62
454.3	3603.62
454.407	3860.62
454.514	3726.62
454.621	3592.62
454.729	3551.62
454.836	3710.62
454.943	3718.62
455.05	3831.62
455.157	3807.62
455.264	3733.62
455.371	3786.62
455.478	3735.62
455.585	4112.62
455.692	3861.62
455.799	3963.62
455.906	3785.62
456.013	3917.62
456.12	3818.62
456.227	3871.62
456.334	3940.62
456.44	4024.62
456.547	3904.62
456.654	3900.62
456.761	4047.62
456.868	4073.62
456.975	4076.62
457.082	4040.62
457.189	3963.62
457.296	4012.62
457.402	4087.62
457.509	4060.62
457.616	4118.62
457.723	4362.62
457.83	4252.62
457.936	4200.62
458.043	4605.62
458.15	4341.62
458.257	4507.62
458.363	4502.62
458.47	4540.62
458.577	4695.62
458.684	4650.62
458.79	4954.62
458.897	5122.62
459.004	5081.62
459.11	5159.62
459.217	5270.62
459.324	5238.62
459.43	5431.62
459.537	5676.62
459.644	5498.62
459.75	5416.62
459.857	6115.62
459.964	5788.62
460.07	5776.62
460.177	5914.62
460.283	6080.62
460.39	6149.62
460.496	5959.62
460.603	6157.62
460.71	5934.62
460.816	5843.62
460.923	5865.62
461.029	5853.62
461.136	5925.62
461.242	5887.62
461.349	5946.62
461.455	5871.62
461.562	6304.62
461.668	6251.62
461.774	5976.62
461.881	6197.62
461.987	6293.62
462.094	6443.62
462.2	6566.62
462.307	6565.62
462.413	6420.62
462.519	6791.62
462.626	7320.62
462.732	7415.62
462.838	7857.62
462.945	8176.62
463.051	8196.62
463.157	7804.62
463.264	7447.62
463.37	7277.62
463.476	6966.62
463.583	6870.62
463.689	6806.62
463.795	6749.62
463.901	6984.62
464.008	7142.62
464.114	7026.62
464.22	6888.62
464.326	6934.62
464.433	6675.62
464.539	6485.62
464.645	6124.62
464.751	6517.62
464.857	6143.62
464.963	5723.62
465.07	5702.62
465.176	5409.62
465.282	5237.62
465.388	5173.62
465.494	4853.62
465.6	4859.62
465.706	4660.62
465.812	4683.62
465.918	4791.62
466.024	4564.62
466.131	4540.62
466.237	4389.62
466.343	4221.62
466.449	4258.62
466.555	4153.62
466.661	4045.62
466.767	4136.62
466.873	4069.62
466.979	4189.62
467.085	4035.62
467.191	4117.62
467.296	4013.62
467.402	3983.62
467.508	4084.62
467.614	4074.62
467.72	3806.62
467.826	3840.62
467.932	3783.62
468.038	3643.62
468.144	3709.62
468.25	3646.62
468.355	3639.62
468.461	3756.62
468.567	3666.62
468.673	3650.62
468.779	3612.62
468.885	3604.62
468.99	3618.62
469.096	3569.62
469.202	3888.62
469.308	3685.62
469.413	3790.62
469.519	3809.62
469.625	3762.62
469.731	3841.62
469.836	3809.62
469.942	4132.62
470.048	3876.62
470.153	3884.62
470.259	3978.62
470.365	3987.62
470.47	3917.62
470.576	3822.62
470.682	3816.62
470.787	3731.62
470.893	3684.62
470.999	3659.62
471.104	3537.62
471.21	3514.62
471.315	3400.62
471.421	3411.62
471.527	3643.62
471.632	3509.62
471.738	3346.62
471.843	3280.62
471.949	3390.62
472.054	3267.62
472.16	3159.62
472.265	3180.62
472.371	3177.62
472.476	3103.62
472.582	3248.62
472.687	3092.62
472.793	3043.62
472.898	3002.62
473.003	3073.62
473.109	2982.62
473.214	2979.62
473.32	3026.62
473.425	3077.62
473.53	2998.62
473.636	2896.62
473.741	2944.62
473.847	2851.62
473.952	2966.62
474.057	3108.62
474.163	3016.62
474.268	2945.62
474.373	3073.62
474.478	2949.62
474.584	2954.62
474.689	3060.62
474.794	2971.62
474.9	3237.62
475.005	2909.62
475.11	3248.62
475.215	3013.62
475.321	2973.62
475.426	3257.62
475.531	3167.62
475.636	2915.62
475.741	3027.62
475.846	3173.62
475.952	3276.62
476.057	3123.62
476.162	3172.62
476.267	3172.62
476.372	3440.62
476.477	3113.62
476.582	3164.62
476.687	3101.62
476.793	3147.62
476.898	3147.62
477.003	3241.62
477.108	3210.62
477.213	3142.62
477.318	3231.62
477.423	3379.62
477.528	3452.62
477.633	3411.62
477.738	3556.62
477.843	3443.62
477.948	3473.62
478.053	3547.62
478.158	3605.62
478.263	3577.62
478.368	3595.62
478.473	3746.62
478.578	3693.62
478.682	3705.62
478.787	3813.62
478.892	3674.62
478.997	3798.62
479.102	3687.62
479.207	3703.62
479.312	3878.62
479.417	3749.62
479.521	3837.62
479.626	3914.62
479.731	3877.62
479.836	4021.62
479.941	4117.62
480.045	4095.62
480.15	4224.62
480.255	4257.62
480.36	4068.62
480.465	4264.62
480.569	4299.62
480.674	4058.62
480.779	3954.62
480.883	3958.62
480.988	4013.62
481.093	3951.62
481.197	3912.62
481.302	3874.62
481.407	3867.62
481.511	5977.62
481.616	3933.62
481.721	3792.62
481.825	3982.62
481.93	3835.62
482.035	3768.62
482.139	3892.62
482.244	3985.62
482.348	3828.62
482.453	3866.62
482.557	3965.62
482.662	3894.62
482.767	3900.62
482.871	3868.62
482.976	3989.62
483.08	4001.62
483.185	4197.62
483.289	4006.62
483.394	4028.62
483.498	4121.62
483.603	4147.62
483.707	4242.62
483.811	4275.62
483.916	4316.62
484.02	4129.62
484.125	4409.62
484.229	4350.62
484.333	4379.62
484.438	4336.62
484.542	4486.62
484.647	4455.62
484.751	4543.62
484.855	4497.62
484.96	4626.62
485.064	4592.62
485.168	4587.62
485.273	4577.62
485.377	4689.62
485.481	4930.62
485.585	4785.62
485.69	4809.62
485.794	4863.62
485.898	4828.62
486.002	4850.62
486.107	4884.62
486.211	4830.62
486.315	4958.62
486.419	4940.62
486.524	4896.62
486.628	4878.62
486.732	4968.62
486.836	4768.62
486.94	4955.62
487.044	4960.62
487.148	4819.62
487.253	4758.62
487.357	4875.62
487.461	5062.62
487.565	4857.62
487.669	4872.62
487.773	4858.62
487.877	4978.62
487.981	4965.62
488.085	4942.62
488.189	4820.62
488.293	4968.62
488.397	5406.62
488.501	4912.62
488.605	4901.62
488.709	4902.62
488.813	4871.62
488.917	4816.62
489.021	5041.62
489.125	5145.62
489.229	4852.62
489.333	5029.62
489.437	4966.62
489.541	4935.62
489.645	4947.62
489.749	4921.62
489.853	5017.62
489.956	4990.62
490.06	5047.62
490.164	4965.62
490.268	4959.62
490.372	5024.62
490.476	4969.62
490.579	4952.62
490.683	5745.62
490.787	5037.62
490.891	5011.62
490.995	5061.62
491.098	4929.62
491.202	4904.62
491.306	5025.62
491.41	4959.62
491.513	4939.62
491.617	4923.62
491.721	5265.62
491.824	5186.62
491.928	4919.62
492.032	5341.62
492.136	5005.62
492.239	5027.62
492.343	5088.62
492.446	5493.62
492.55	4995.62
492.654	4943.62
492.757	5013.62
492.861	5107.62
492.965	4973.62
493.068	5168.62
493.172	4982.62
493.275	4922.62
493.379	5113.62
493.482	5186.62
493.586	5237.62
493.689	5280.62
493.793	5092.62
493.896	5206.62
494	5164.62
494.103	5212.62
494.207	5450.62
494.31	5559.62
494.414	5258.62
494.517	5131.62
494.621	4997.62
494.724	5101.62
494.828	4945.62
494.931	4988.62
495.034	4916.62
495.138	5161.62
495.241	4838.62
495.345	5804.62
495.448	5155.62
495.551	4931.62
495.655	4946.62
495.758	4972.62
495.861	4847.62
495.965	4939.62
496.068	5043.62
496.171	5078.62
496.274	5035.62
496.378	5055.62
496.481	5094.62
496.584	5091.62
496.687	5127.62
496.791	5194.62
496.894	5189.62
496.997	5172.62
497.1	5300.62
497.204	5158.62
497.307	5217.62
497.41	5570.62
497.513	5650.62
497.616	5501.62
497.719	5565.62
497.823	5616.62
497.926	5670.62
498.029	5961.62
498.132	5963.62
498.235	6096.62
498.338	6336.62
498.441	6614.62
498.544	6657.62
498.647	6965.62
498.75	7251.62
498.853	7503.62
498.956	7738.62
499.059	8252.62
499.163	8285.62
499.266	8756.62
499.369	9108.62
499.471	9435.62
499.574	10003.62
499.677	10430.62
499.78	11296.62
499.883	12044.62
499.986	12780.62
500.089	13181.62
500.192	13540.62
500.295	13451.62
500.398	13364.62
500.501	13102.62
500.604	12417.62
500.707	11804.62
500.809	11296.62
500.912	10791.62
501.015	10166.62
501.118	9499.62
501.221	9000.62
501.324	8345.62
501.426	8138.62
501.529	7617.62
501.632	7248.62
501.735	7094.62
501.837	6900.62
501.94	6495.62
502.043	6362.62
502.146	6377.62
502.248	6089.62
502.351	5955.62
502.454	5803.62
502.557	5603.62
502.659	5405.62
502.762	5258.62
502.865	5188.62
502.967	5048.62
503.07	4986.62
503.173	4972.62
503.275	4792.62
503.378	4668.62
503.48	4741.62
503.583	4834.62
503.686	4604.62
503.788	5003.62
503.891	4604.62
503.993	4910.62
504.096	4745.62
504.198	4914.62
504.301	4767.62
504.403	4855.62
504.506	4786.62
504.608	4584.62
504.711	4490.62
504.813	4422.62
504.916	4238.62
505.018	4086.62
505.121	3986.62
505.223	4003.62
505.326	3959.62
505.428	3996.62
505.531	3868.62
505.633	3830.62
505.735	3751.62
505.838	3703.62
505.94	3614.62
506.042	3609.62
506.145	3639.62
506.247	3668.62
506.35	3490.62
506.452	3582.62
506.554	3583.62
506.656	3558.62
506.759	3446.62
506.861	3484.62
506.963	3382.62
507.066	3465.62
507.168	3550.62
507.27	3388.62
507.372	3328.62
507.475	3396.62
507.577	3380.62
507.679	3323.62
507.781	3223.62
507.883	3265.62
507.986	3203.62
508.088	3324.62
508.19	3316.62
508.292	3331.62
508.394	3148.62
508.496	3245.62
508.598	3113.62
508.701	3167.62
508.803	3186.62
508.905	3060.62
509.007	3151.62
509.109	3189.62
509.211	3133.62
509.313	3120.62
509.415	3051.62
509.517	3153.62
509.619	3050.62
509.721	3154.62
509.823	3004.62
509.925	3281.62
510.027	3061.62
510.129	3147.62
510.231	3196.62
510.333	3090.62
510.435	3175.62
510.537	3124.62
510.639	3120.62
510.741	3087.62
510.843	3158.62
510.945	3057.62
511.047	3250.62
511.148	3131.62
511.25	3104.62
511.352	3130.62
511.454	3030.62
511.556	3142.62
511.658	3042.62
511.76	3110.62
511.861	3272.62
511.963	3074.62
512.065	3088.62
512.167	3070.62
512.268	3224.62
512.37	3167.62
512.472	3110.62
512.574	3103.62
512.676	3139.62
512.777	3085.62
512.879	3121.62
512.981	3084.62
513.082	3195.62
513.184	3065.62
513.286	3656.62
513.387	3210.62
513.489	3296.62
513.591	3236.62
513.692	3297.62
513.794	3320.62
513.896	3065.62
513.997	3169.62
514.099	3179.62
514.2	3257.62
514.302	3321.62
514.404	3351.62
514.505	3232.62
514.607	3408.62
514.708	3382.62
514.81	3394.62
514.911	3428.62
515.013	3409.62
515.114	3482.62
515.216	3379.62
515.317	3480.62
515.419	3455.62
515.52	3544.62
515.622	3538.62
515.723	3619.62
515.825	3774.62
515.926	3716.62
516.027	3710.62
516.129	3772.62
516.23	3864.62
516.332	3932.62
516.433	3992.62
516.534	4131.62
516.636	4057.62
516.737	4291.62
516.838	5469.62
516.94	4599.62
517.041	4608.62
517.142	4826.62
517.244	4863.62
517.345	4966.62
517.446	5062.62
517.547	5051.62
517.649	4946.62
517.75	5115.62
517.851	5004.62
517.952	5242.62
518.054	4955.62
518.155	4926.62
518.256	4693.62
518.357	4680.62
518.458	4416.62
518.56	4353.62
518.661	4247.62
518.762	4254.62
518.863	4264.62
518.964	4220.62
519.065	4088.62
519.166	3961.62
519.268	3893.62
519.369	4221.62
519.47	3914.62
519.571	3869.62
519.672	3779.62
519.773	3678.62
519.874	3744.62
519.975	3757.62
520.076	3782.62
520.177	3832.62
520.278	3713.62
520.379	3749.62
520.48	3624.62
520.581	3583.62
520.682	3647.62
520.783	3584.62
520.884	3736.62
520.985	3705.62
521.086	3675.62
521.187	3685.62
521.288	3607.62
521.389	3691.62
521.489	3556.62
521.59	3572.62
521.691	3708.62
521.792	3538.62
521.893	3696.62
521.994	3813.62
522.095	3624.62
522.195	3631.62
522.296	3709.62
522.397	3596.62
522.498	3495.62
522.599	3463.62
522.699	3589.62
522.8	3619.62
522.901	3644.62
523.002	3524.62
523.102	3742.62
523.203	3591.62
523.304	3855.62
523.405	3518.62
523.505	3626.62
523.606	3714.62
523.707	3690.62
523.807	3600.62
523.908	3664.62
524.009	3750.62
524.109	3633.62
524.21	3529.62
524.31	3716.62
524.411	3767.62
524.512	3662.62
524.612	3602.62
524.713	3830.62
524.813	3643.62
524.914	3985.62
525.014	8643.62
525.115	4026.62
525.216	3563.62
525.316	3637.62
525.417	3685.62
525.517	3618.62
525.618	3609.62
525.718	3649.62
525.819	3642.62
525.919	3789.62
526.019	3602.62
526.12	3723.62
526.22	3603.62
526.321	3687.62
526.421	3582.62
526.522	3653.62
526.622	3635.62
526.722	3587.62
526.823	3632.62
526.923	3756.62
527.023	3753.62
527.124	3652.62
527.224	3825.62
527.324	3540.62
527.425	3683.62
527.525	3579.62
527.625	3613.62
527.726	3587.62
527.826	3774.62
527.926	3669.62
528.026	3642.62
528.127	3640.62
528.227	3683.62
528.327	3737.62
528.427	3637.62
528.528	3750.62
528.628	3734.62
528.728	3781.62
528.828	3799.62
528.928	3756.62
529.029	3652.62
529.129	3681.62
529.229	3736.62
529.329	3593.62
529.429	3731.62
529.529	3806.62
529.629	3720.62
529.729	3647.62
529.829	3808.62
529.93	3616.62
530.03	3728.62
530.13	3672.62
530.23	3624.62
530.33	3656.62
530.43	3655.62
530.53	3737.62
530.63	3634.62
530.73	3536.62
530.83	3610.62
530.93	3526.62
531.03	3492.62
531.13	3715.62
531.23	3544.62
531.33	3649.62
531.429	3662.62
531.529	3753.62
531.629	3601.62
531.729	3497.62
531.829	3493.62
531.929	3585.62
532.029	3667.62
532.129	3532.62
532.229	3565.62
532.328	3525.62
532.428	3613.62
532.528	3437.62
532.628	3453.62
532.728	3595.62
532.827	3410.62
532.927	3508.62
533.027	3497.62
533.127	3612.62
533.227	3489.62
533.326	3461.62
533.426	3363.62
533.526	3611.62
533.625	3543.62
533.725	3791.62
533.825	3475.62
533.924	3367.62
534.024	3347.62
534.124	3367.62
534.223	3347.62
534.323	3804.62
534.423	3450.62
534.522	3378.62
534.622	3199.62
534.722	3371.62
534.821	3276.62
534.921	3249.62
535.02	3222.62
535.12	3297.62
535.219	3312.62
535.319	3295.62
535.419	3250.62
535.518	3122.62
535.618	3170.62
535.717	3271.62
535.817	3101.62
535.916	3016.62
536.016	3167.62
536.115	3045.62
536.215	3052.62
536.314	3028.62
536.413	2888.62
536.513	3009.62
536.612	3071.62
536.712	2877.62
536.811	2947.62
536.91	2912.62
537.01	2960.62
537.109	3012.62
537.209	2942.62
537.308	2949.62
537.407	2944.62
537.507	2931.62
537.606	2952.62
537.705	2930.62
537.805	2875.62
