Data from 28g_HRC06701__39__405.txt Node

Date: Thu Apr 18 02:21:10 CDT 2024
User: Estudiantes 2
Spectrometer: HR+C0670
Trigger mode: 4
Integration Time (sec): 1.000000E0
Scans to average: 1
Electric dark correction enabled: true
Nonlinearity correction enabled: false
Boxcar width: 0
XAxis mode: Wavelengths
Number of Pixels in Spectrum: 2048
>>>>>Begin Spectral Data<<<<<
407.81	-162.25
407.921	-162.25
408.032	-162.25
408.143	-160.25
408.254	-99.25
408.365	39.75
408.476	253.75
408.587	10.75
408.699	31.75
408.81	-34.25
408.921	-60.25
409.032	-20.25
409.143	10.75
409.254	45.75
409.365	108.75
409.476	-46.25
409.587	11.75
409.698	69.75
409.809	93.75
409.92	-59.25
410.031	-29.25
410.142	91.75
410.253	27.75
410.364	32.75
410.475	307.75
410.585	1434.75
410.696	1574.75
410.807	1526.75
410.918	1541.75
411.029	1658.75
411.14	1585.75
411.251	1541.75
411.362	1588.75
411.472	1696.75
411.583	1701.75
411.694	1691.75
411.805	1675.75
411.916	1750.75
412.026	1691.75
412.137	1714.75
412.248	1649.75
412.359	1586.75
412.47	1581.75
412.58	1555.75
412.691	1592.75
412.802	1541.75
412.912	1602.75
413.023	1645.75
413.134	1561.75
413.245	1643.75
413.355	1604.75
413.466	1497.75
413.577	1588.75
413.687	1710.75
413.798	1520.75
413.909	1689.75
414.019	1642.75
414.13	1700.75
414.24	1566.75
414.351	1669.75
414.462	1873.75
414.572	1655.75
414.683	1623.75
414.793	1643.75
414.904	1984.75
415.014	1712.75
415.125	1613.75
415.235	1667.75
415.346	1804.75
415.456	1793.75
415.567	1706.75
415.677	1644.75
415.788	1731.75
415.898	1613.75
416.009	1562.75
416.119	1661.75
416.23	1622.75
416.34	1578.75
416.45	1696.75
416.561	2521.75
416.671	1763.75
416.782	1605.75
416.892	1695.75
417.002	1684.75
417.113	1780.75
417.223	1684.75
417.333	1742.75
417.444	1702.75
417.554	1780.75
417.664	1863.75
417.775	1655.75
417.885	1753.75
417.995	1789.75
418.106	1990.75
418.216	1808.75
418.326	1946.75
418.436	1899.75
418.547	1875.75
418.657	1895.75
418.767	2089.75
418.877	1909.75
418.987	1944.75
419.098	1976.75
419.208	1926.75
419.318	1974.75
419.428	2024.75
419.538	1866.75
419.648	1926.75
419.759	2027.75
419.869	1967.75
419.979	1916.75
420.089	1993.75
420.199	1961.75
420.309	1938.75
420.419	1953.75
420.529	2052.75
420.639	2409.75
420.749	2009.75
420.859	2140.75
420.969	1931.75
421.079	2238.75
421.189	2123.75
421.299	2041.75
421.409	1951.75
421.519	2144.75
421.629	2182.75
421.739	2076.75
421.849	2007.75
421.959	2105.75
422.069	2180.75
422.179	2141.75
422.289	2215.75
422.399	2267.75
422.509	2339.75
422.619	5771.75
422.729	2569.75
422.838	2168.75
422.948	2321.75
423.058	2364.75
423.168	2373.75
423.278	2367.75
423.388	2492.75
423.498	2480.75
423.607	2435.75
423.717	2768.75
423.827	2792.75
423.937	2548.75
424.046	2581.75
424.156	2656.75
424.266	2471.75
424.376	2845.75
424.485	2663.75
424.595	2565.75
424.705	2508.75
424.815	2619.75
424.924	3018.75
425.034	2617.75
425.144	2436.75
425.253	2501.75
425.363	2605.75
425.473	2592.75
425.582	2543.75
425.692	2553.75
425.801	2491.75
425.911	2716.75
426.021	2636.75
426.13	2740.75
426.24	2826.75
426.349	2718.75
426.459	2693.75
426.568	2680.75
426.678	2779.75
426.787	2677.75
426.897	2626.75
427.006	2724.75
427.116	2717.75
427.225	2779.75
427.335	2836.75
427.444	2740.75
427.554	2741.75
427.663	2812.75
427.773	2730.75
427.882	2787.75
427.992	2789.75
428.101	2849.75
428.21	2829.75
428.32	2881.75
428.429	2826.75
428.539	3122.75
428.648	2848.75
428.757	2948.75
428.867	2947.75
428.976	3100.75
429.085	3068.75
429.195	2936.75
429.304	2953.75
429.413	3103.75
429.523	3076.75
429.632	3004.75
429.741	3045.75
429.85	3036.75
429.96	3107.75
430.069	3012.75
430.178	3091.75
430.287	3394.75
430.397	3102.75
430.506	3230.75
430.615	3092.75
430.724	3217.75
430.833	3232.75
430.943	3202.75
431.052	3235.75
431.161	3266.75
431.27	3449.75
431.379	3233.75
431.488	3662.75
431.597	3521.75
431.706	3622.75
431.816	3500.75
431.925	3600.75
432.034	3404.75
432.143	3561.75
432.252	3557.75
432.361	3611.75
432.47	3508.75
432.579	3508.75
432.688	3516.75
432.797	3495.75
432.906	3462.75
433.015	3687.75
433.124	3857.75
433.233	3621.75
433.342	3710.75
433.451	3697.75
433.56	3541.75
433.669	3591.75
433.778	3580.75
433.886	3699.75
433.995	3761.75
434.104	3975.75
434.213	3878.75
434.322	3922.75
434.431	4155.75
434.54	4131.75
434.649	4320.75
434.757	4272.75
434.866	4084.75
434.975	4132.75
435.084	4019.75
435.193	3877.75
435.301	4000.75
435.41	4085.75
435.519	4116.75
435.628	3529.75
435.737	3531.75
435.845	3475.75
435.954	3320.75
436.063	3412.75
436.171	3434.75
436.28	3445.75
436.389	3616.75
436.498	3521.75
436.606	3419.75
436.715	3574.75
436.823	3440.75
436.932	3332.75
437.041	3270.75
437.149	3312.75
437.258	3342.75
437.367	3226.75
437.475	3234.75
437.584	3519.75
437.692	3084.75
437.801	4801.75
437.91	3349.75
438.018	3077.75
438.127	3067.75
438.235	3230.75
438.344	3201.75
438.452	3165.75
438.561	3008.75
438.669	3188.75
438.778	2995.75
438.886	3122.75
438.995	3109.75
439.103	3095.75
439.212	3067.75
439.32	3177.75
439.428	3108.75
439.537	3172.75
439.645	3258.75
439.754	3259.75
439.862	3089.75
439.97	3193.75
440.079	3294.75
440.187	3153.75
440.295	3323.75
440.404	3224.75
440.512	3203.75
440.62	3358.75
440.729	3451.75
440.837	3476.75
440.945	4229.75
441.054	3542.75
441.162	3572.75
441.27	3719.75
441.378	3725.75
441.487	3752.75
441.595	4144.75
441.703	3844.75
441.811	3732.75
441.92	3618.75
442.028	3540.75
442.136	3554.75
442.244	3570.75
442.352	3501.75
442.461	3365.75
442.569	3541.75
442.677	3531.75
442.785	3516.75
442.893	3526.75
443.001	3457.75
443.109	3484.75
443.217	3523.75
443.325	3481.75
443.434	4112.75
443.542	3935.75
443.65	3657.75
443.758	3778.75
443.866	3831.75
443.974	4250.75
444.082	3904.75
444.19	4047.75
444.298	4307.75
444.406	4401.75
444.514	4476.75
444.622	4686.75
444.73	4464.75
444.838	4279.75
444.946	4246.75
445.054	3981.75
445.161	3869.75
445.269	3774.75
445.377	3825.75
445.485	3606.75
445.593	3649.75
445.701	3814.75
445.809	3638.75
445.917	3629.75
446.025	3511.75
446.132	3638.75
446.24	3600.75
446.348	3601.75
446.456	3370.75
446.564	3420.75
446.671	3481.75
446.779	3466.75
446.887	3380.75
446.995	3447.75
447.102	3476.75
447.21	3466.75
447.318	3409.75
447.426	3403.75
447.533	3643.75
447.641	4656.75
447.749	3443.75
447.856	3363.75
447.964	3373.75
448.072	3491.75
448.179	3399.75
448.287	3357.75
448.395	3459.75
448.502	3330.75
448.61	3369.75
448.718	3347.75
448.825	3443.75
448.933	3356.75
449.04	3318.75
449.148	3465.75
449.256	3491.75
449.363	3412.75
449.471	3490.75
449.578	3639.75
449.686	3458.75
449.793	3599.75
449.901	3534.75
450.008	3518.75
450.116	3679.75
450.223	3656.75
450.331	3787.75
450.438	3764.75
450.546	3762.75
450.653	3897.75
450.76	3878.75
450.868	3969.75
450.975	4141.75
451.083	3914.75
451.19	4018.75
451.297	3962.75
451.405	3964.75
451.512	3969.75
451.619	4193.75
451.727	4201.75
451.834	3977.75
451.941	4121.75
452.049	4065.75
452.156	4001.75
452.263	4138.75
452.371	4096.75
452.478	4083.75
452.585	4243.75
452.692	4198.75
452.8	4172.75
452.907	4336.75
453.014	4258.75
453.121	4195.75
453.229	4330.75
453.336	4328.75
453.443	4443.75
453.55	4263.75
453.657	4278.75
453.765	4499.75
453.872	4256.75
453.979	4366.75
454.086	4560.75
454.193	4409.75
454.3	4325.75
454.407	4502.75
454.514	4528.75
454.621	4375.75
454.729	4418.75
454.836	4424.75
454.943	4457.75
455.05	4536.75
455.157	4745.75
455.264	4525.75
455.371	4618.75
455.478	4503.75
455.585	5989.75
455.692	4780.75
455.799	4871.75
455.906	4631.75
456.013	4603.75
456.12	4706.75
456.227	4761.75
456.334	4908.75
456.44	4892.75
456.547	4845.75
456.654	4685.75
456.761	4830.75
456.868	5014.75
456.975	4984.75
457.082	4917.75
457.189	4837.75
457.296	4992.75
457.402	4992.75
457.509	4950.75
457.616	5078.75
457.723	5374.75
457.83	5276.75
457.936	5217.75
458.043	5645.75
458.15	5325.75
458.257	5533.75
458.363	5540.75
458.47	5690.75
458.577	5916.75
458.684	5808.75
458.79	6109.75
458.897	6166.75
459.004	6420.75
459.11	6285.75
459.217	6348.75
459.324	6520.75
459.43	6803.75
459.537	6988.75
459.644	6884.75
459.75	6928.75
459.857	7585.75
459.964	7353.75
460.07	7404.75
460.177	7542.75
460.283	7567.75
460.39	7819.75
460.496	7651.75
460.603	7711.75
460.71	7591.75
460.816	7447.75
460.923	7370.75
461.029	7461.75
461.136	7419.75
461.242	7452.75
461.349	7494.75
461.455	7411.75
461.562	7785.75
461.668	7747.75
461.774	7715.75
461.881	7880.75
461.987	8083.75
462.094	8313.75
462.2	8311.75
462.307	8250.75
462.413	8312.75
462.519	8654.75
462.626	9415.75
462.732	9414.75
462.838	10058.75
462.945	10277.75
463.051	10303.75
463.157	9892.75
463.264	9306.75
463.37	9053.75
463.476	8854.75
463.583	8616.75
463.689	8498.75
463.795	8680.75
463.901	8700.75
464.008	8941.75
464.114	8826.75
464.22	8837.75
464.326	8845.75
464.433	8324.75
464.539	8386.75
464.645	7997.75
464.751	8045.75
464.857	7764.75
464.963	7313.75
465.07	7135.75
465.176	6788.75
465.282	6564.75
465.388	6522.75
465.494	6313.75
465.6	6106.75
465.706	5969.75
465.812	5874.75
465.918	5969.75
466.024	5812.75
466.131	5685.75
466.237	5563.75
466.343	5370.75
466.449	5336.75
466.555	5301.75
466.661	5106.75
466.767	5194.75
466.873	5242.75
466.979	5378.75
467.085	5148.75
467.191	5192.75
467.296	5198.75
467.402	5152.75
467.508	5142.75
467.614	5206.75
467.72	4883.75
467.826	4963.75
467.932	4864.75
468.038	4753.75
468.144	4704.75
468.25	4730.75
468.355	4765.75
468.461	4672.75
468.567	4679.75
468.673	4609.75
468.779	4590.75
468.885	4566.75
468.99	4674.75
469.096	4673.75
469.202	4735.75
469.308	4794.75
469.413	4917.75
469.519	4878.75
469.625	4933.75
469.731	4868.75
469.836	4947.75
469.942	5127.75
470.048	4988.75
470.153	4930.75
470.259	4964.75
470.365	5079.75
470.47	4939.75
470.576	4831.75
470.682	4915.75
470.787	4724.75
470.893	4621.75
470.999	4691.75
471.104	4581.75
471.21	4471.75
471.315	4390.75
471.421	4430.75
471.527	4560.75
471.632	4344.75
471.738	4310.75
471.843	4135.75
471.949	4196.75
472.054	4293.75
472.16	4104.75
472.265	4165.75
472.371	4220.75
472.476	4067.75
472.582	4154.75
472.687	4024.75
472.793	3921.75
472.898	3902.75
473.003	3941.75
473.109	4033.75
473.214	3833.75
473.32	3900.75
473.425	3987.75
473.53	3915.75
473.636	3921.75
473.741	3892.75
473.847	3893.75
473.952	3825.75
474.057	3863.75
474.163	3942.75
474.268	3838.75
474.373	3929.75
474.478	3860.75
474.584	3832.75
474.689	3936.75
474.794	4050.75
474.9	4125.75
475.005	3846.75
475.11	4076.75
475.215	3910.75
475.321	3925.75
475.426	4145.75
475.531	4061.75
475.636	3928.75
475.741	3909.75
475.846	4129.75
475.952	4179.75
476.057	4039.75
476.162	4188.75
476.267	4157.75
476.372	4320.75
476.477	4119.75
476.582	4223.75
476.687	4117.75
476.793	4120.75
476.898	4145.75
477.003	4200.75
477.108	4294.75
477.213	4311.75
477.318	4319.75
477.423	4367.75
477.528	4648.75
477.633	4609.75
477.738	4545.75
477.843	4614.75
477.948	4732.75
478.053	4715.75
478.158	4751.75
478.263	4848.75
478.368	4833.75
478.473	5012.75
478.578	5128.75
478.682	4993.75
478.787	5187.75
478.892	5070.75
478.997	5148.75
479.102	5002.75
479.207	5001.75
479.312	5185.75
479.417	5035.75
479.521	5080.75
479.626	5270.75
479.731	5257.75
479.836	5291.75
479.941	5625.75
480.045	5580.75
480.15	5632.75
480.255	5725.75
480.36	5670.75
480.465	5633.75
480.569	5791.75
480.674	5585.75
480.779	5306.75
480.883	5326.75
480.988	5493.75
481.093	5285.75
481.197	5181.75
481.302	5196.75
481.407	5262.75
481.511	6685.75
481.616	5454.75
481.721	5244.75
481.825	5393.75
481.93	5202.75
482.035	5237.75
482.139	5330.75
482.244	5308.75
482.348	5372.75
482.453	5410.75
482.557	5526.75
482.662	5610.75
482.767	5477.75
482.871	5414.75
482.976	5545.75
483.08	5628.75
483.185	5909.75
483.289	5726.75
483.394	5761.75
483.498	5839.75
483.603	5858.75
483.707	5936.75
483.811	5949.75
483.916	6078.75
484.02	6081.75
484.125	6301.75
484.229	6210.75
484.333	6456.75
484.438	6223.75
484.542	6368.75
484.647	6393.75
484.751	6539.75
484.855	6606.75
484.96	6683.75
485.064	6717.75
485.168	6733.75
485.273	6869.75
485.377	6898.75
485.481	7096.75
485.585	6978.75
485.69	6865.75
485.794	7099.75
485.898	7008.75
486.002	6995.75
486.107	7152.75
486.211	6993.75
486.315	7062.75
486.419	7122.75
486.524	7036.75
486.628	7122.75
486.732	7172.75
486.836	7055.75
486.94	7232.75
487.044	7155.75
487.148	7089.75
487.253	6978.75
487.357	7144.75
487.461	7350.75
487.565	7117.75
487.669	7154.75
487.773	7009.75
487.877	7160.75
487.981	7175.75
488.085	7130.75
488.189	6978.75
488.293	7108.75
488.397	7488.75
488.501	7063.75
488.605	7047.75
488.709	7059.75
488.813	7082.75
488.917	6995.75
489.021	6970.75
489.125	7414.75
489.229	7015.75
489.333	7143.75
489.437	7216.75
489.541	7138.75
489.645	6961.75
489.749	7098.75
489.853	7211.75
489.956	7052.75
490.06	7195.75
490.164	7148.75
490.268	6977.75
490.372	7192.75
490.476	7035.75
490.579	7050.75
490.683	7773.75
490.787	7171.75
490.891	6931.75
490.995	7009.75
491.098	7077.75
491.202	7017.75
491.306	6996.75
491.41	7101.75
491.513	7000.75
491.617	6888.75
491.721	7095.75
491.824	7278.75
491.928	7030.75
492.032	7305.75
492.136	7052.75
492.239	6996.75
492.343	7068.75
492.446	7596.75
492.55	7115.75
492.654	6963.75
492.757	6900.75
492.861	7039.75
492.965	6920.75
493.068	7006.75
493.172	7015.75
493.275	7045.75
493.379	7009.75
493.482	7182.75
493.586	7248.75
493.689	7228.75
493.793	7056.75
493.896	7225.75
494	7235.75
494.103	7170.75
494.207	7632.75
494.31	7566.75
494.414	7165.75
494.517	7083.75
494.621	6957.75
494.724	6938.75
494.828	7005.75
494.931	6941.75
495.034	6908.75
495.138	7096.75
495.241	6723.75
495.345	7574.75
495.448	6986.75
495.551	6924.75
495.655	6868.75
495.758	6838.75
495.861	6760.75
495.965	6844.75
496.068	6975.75
496.171	7028.75
496.274	6972.75
496.378	6917.75
496.481	6996.75
496.584	7029.75
496.687	6969.75
496.791	7100.75
496.894	7237.75
496.997	7133.75
497.1	7282.75
497.204	7372.75
497.307	7296.75
497.41	7572.75
497.513	7720.75
497.616	7657.75
497.719	7612.75
497.823	7959.75
497.926	7979.75
498.029	8098.75
498.132	8288.75
498.235	8590.75
498.338	8783.75
498.441	8977.75
498.544	9360.75
498.647	9585.75
498.75	10014.75
498.853	10361.75
498.956	10600.75
499.059	11187.75
499.163	11515.75
499.266	12036.75
499.369	12523.75
499.471	13071.75
499.574	13894.75
499.677	14517.75
499.78	14574.75
499.883	14574.75
499.986	14574.75
500.089	14574.75
500.192	14574.75
500.295	14574.75
500.398	14574.75
500.501	14574.75
500.604	14574.75
500.707	14574.75
500.809	14574.75
500.912	14574.75
501.015	13845.75
501.118	12985.75
501.221	12355.75
501.324	11451.75
501.426	10998.75
501.529	10568.75
501.632	10054.75
501.735	9588.75
501.837	9342.75
501.94	8911.75
502.043	8834.75
502.146	8484.75
502.248	8291.75
502.351	8171.75
502.454	8036.75
502.557	7773.75
502.659	7555.75
502.762	7350.75
502.865	7148.75
502.967	6830.75
503.07	6848.75
503.173	6918.75
503.275	6701.75
503.378	6624.75
503.48	6472.75
503.583	6685.75
503.686	6412.75
503.788	6753.75
503.891	6569.75
503.993	6747.75
504.096	6621.75
504.198	6860.75
504.301	6745.75
504.403	6786.75
504.506	6675.75
504.608	6451.75
504.711	6224.75
504.813	6131.75
504.916	5937.75
505.018	5711.75
505.121	5497.75
505.223	5510.75
505.326	5384.75
505.428	5413.75
505.531	5295.75
505.633	5165.75
505.735	5086.75
505.838	5095.75
505.94	5075.75
506.042	4982.75
506.145	4872.75
506.247	5087.75
506.35	4859.75
506.452	4860.75
506.554	5008.75
506.656	4841.75
506.759	4739.75
506.861	4857.75
506.963	4701.75
507.066	4753.75
507.168	4876.75
507.27	4736.75
507.372	4570.75
507.475	4707.75
507.577	4699.75
507.679	4492.75
507.781	4512.75
507.883	4583.75
507.986	4569.75
508.088	4425.75
508.19	4510.75
508.292	4444.75
508.394	4389.75
508.496	4384.75
508.598	4397.75
508.701	4353.75
508.803	4463.75
508.905	4333.75
509.007	4403.75
509.109	4427.75
509.211	4508.75
509.313	4357.75
509.415	4291.75
509.517	4305.75
509.619	4279.75
509.721	4322.75
509.823	4364.75
509.925	4551.75
510.027	4250.75
510.129	4286.75
510.231	4340.75
510.333	4250.75
510.435	4293.75
510.537	4415.75
510.639	4396.75
510.741	4285.75
510.843	4403.75
510.945	4321.75
511.047	4387.75
511.148	4362.75
511.25	4278.75
511.352	4409.75
511.454	4287.75
511.556	4437.75
511.658	4214.75
511.76	4444.75
511.861	4461.75
511.963	4262.75
512.065	4220.75
512.167	4284.75
512.268	4545.75
512.37	4264.75
512.472	4336.75
512.574	4401.75
512.676	4388.75
512.777	4324.75
512.879	4379.75
512.981	4199.75
513.082	4304.75
513.184	4398.75
513.286	4901.75
513.387	4448.75
513.489	4610.75
513.591	4467.75
513.692	4489.75
513.794	4555.75
513.896	4412.75
513.997	4421.75
514.099	4465.75
514.2	4592.75
514.302	4488.75
514.404	4567.75
514.505	4675.75
514.607	4703.75
514.708	4629.75
514.81	4709.75
514.911	4772.75
515.013	4820.75
515.114	4815.75
515.216	4808.75
515.317	4827.75
515.419	4896.75
515.52	5036.75
515.622	4953.75
515.723	5038.75
515.825	5321.75
515.926	5097.75
516.027	5077.75
516.129	5280.75
516.23	5487.75
516.332	5458.75
516.433	5566.75
516.534	5813.75
516.636	5867.75
516.737	5955.75
516.838	7308.75
516.94	6321.75
517.041	6452.75
517.142	6892.75
517.244	6922.75
517.345	6788.75
517.446	6991.75
517.547	7157.75
517.649	6976.75
517.75	7084.75
517.851	6995.75
517.952	7114.75
518.054	6854.75
518.155	6878.75
518.256	6481.75
518.357	6466.75
518.458	6286.75
518.56	6098.75
518.661	6021.75
518.762	5937.75
518.863	6007.75
518.964	5820.75
519.065	5613.75
519.166	5622.75
519.268	5539.75
519.369	5753.75
519.47	5411.75
519.571	5474.75
519.672	5259.75
519.773	5298.75
519.874	5292.75
519.975	5277.75
520.076	5219.75
520.177	5357.75
520.278	5214.75
520.379	5204.75
520.48	5262.75
520.581	5236.75
520.682	5131.75
520.783	5251.75
520.884	5222.75
520.985	5141.75
521.086	5223.75
521.187	5167.75
521.288	5188.75
521.389	5070.75
521.489	5120.75
521.59	4933.75
521.691	5065.75
521.792	5037.75
521.893	5156.75
521.994	5218.75
522.095	5217.75
522.195	5117.75
522.296	5171.75
522.397	5198.75
522.498	5087.75
522.599	4936.75
522.699	5073.75
522.8	5036.75
522.901	5123.75
523.002	4999.75
523.102	5320.75
523.203	5060.75
523.304	5246.75
523.405	5132.75
523.505	5181.75
523.606	5197.75
523.707	5176.75
523.807	5090.75
523.908	5067.75
524.009	5198.75
524.109	5163.75
524.21	5128.75
524.31	5194.75
524.411	5289.75
524.512	5183.75
524.612	5174.75
524.713	5316.75
524.813	5098.75
524.914	5373.75
525.014	10360.75
525.115	5518.75
525.216	5080.75
525.316	5124.75
525.417	5154.75
525.517	5052.75
525.618	5258.75
525.718	5148.75
525.819	5176.75
525.919	5197.75
526.019	5292.75
526.12	5263.75
526.22	5201.75
526.321	5165.75
526.421	5151.75
526.522	5239.75
526.622	5145.75
526.722	5150.75
526.823	5083.75
526.923	5213.75
527.023	5416.75
527.124	5184.75
527.224	5275.75
527.324	5057.75
527.425	5276.75
527.525	5033.75
527.625	5218.75
527.726	5170.75
527.826	5266.75
527.926	5197.75
528.026	5282.75
528.127	5147.75
528.227	5245.75
528.327	5394.75
528.427	5219.75
528.528	5202.75
528.628	5307.75
528.728	5116.75
528.828	5218.75
528.928	5307.75
529.029	5148.75
529.129	5176.75
529.229	5244.75
529.329	5334.75
529.429	5177.75
529.529	5340.75
529.629	5312.75
529.729	5159.75
529.829	5338.75
529.93	5171.75
530.03	5196.75
530.13	5138.75
530.23	5202.75
530.33	5260.75
530.43	5154.75
530.53	5301.75
530.63	5246.75
530.73	5149.75
530.83	5153.75
530.93	5145.75
531.03	5095.75
531.13	5213.75
531.23	5182.75
531.33	5184.75
531.429	5195.75
531.529	5307.75
531.629	5184.75
531.729	5062.75
531.829	5081.75
531.929	5156.75
532.029	5109.75
532.129	5045.75
532.229	5171.75
532.328	4992.75
532.428	5052.75
532.528	4966.75
532.628	4938.75
532.728	5014.75
532.827	4949.75
532.927	5070.75
533.027	5043.75
533.127	5137.75
533.227	5007.75
533.326	4935.75
533.426	4944.75
533.526	5147.75
533.625	5005.75
533.725	5189.75
533.825	5020.75
533.924	4741.75
534.024	4734.75
534.124	4764.75
534.223	4906.75
534.323	5175.75
534.423	4821.75
534.522	4761.75
534.622	4617.75
534.722	4635.75
534.821	4838.75
534.921	4677.75
535.02	4560.75
535.12	4761.75
535.219	4806.75
535.319	4651.75
535.419	4666.75
535.518	4584.75
535.618	4608.75
535.717	4629.75
535.817	4460.75
535.916	4364.75
536.016	4487.75
536.115	4405.75
536.215	4422.75
536.314	4318.75
536.413	4310.75
536.513	4321.75
536.612	4361.75
536.712	4279.75
536.811	4350.75
536.91	4235.75
537.01	4182.75
537.109	4286.75
537.209	4254.75
537.308	4261.75
537.407	4234.75
537.507	4189.75
537.606	4160.75
537.705	4261.75
