Data from 28g_HRC06701__38__404.txt Node

Date: Thu Apr 18 02:21:09 CDT 2024
User: Estudiantes 2
Spectrometer: HR+C0670
Trigger mode: 4
Integration Time (sec): 1.000000E0
Scans to average: 1
Electric dark correction enabled: true
Nonlinearity correction enabled: false
Boxcar width: 0
XAxis mode: Wavelengths
Number of Pixels in Spectrum: 2048
>>>>>Begin Spectral Data<<<<<
407.81	-99.25
407.921	-99.25
408.032	-99.25
408.143	-126.25
408.254	-148.25
408.365	30.75
408.476	255.75
408.587	-61.25
408.699	11.75
408.81	-3.25
408.921	-41.25
409.032	-10.25
409.143	97.75
409.254	6.75
409.365	59.75
409.476	-22.25
409.587	-6.25
409.698	55.75
409.809	140.75
409.92	-22.25
410.031	-51.25
410.142	68.75
410.253	64.75
410.364	22.75
410.475	-51.25
410.585	35.75
410.696	12.75
410.807	6.75
410.918	27.75
411.029	48.75
411.14	33.75
411.251	-7.25
411.362	59.75
411.472	23.75
411.583	31.75
411.694	62.75
411.805	0.75
411.916	-26.25
412.026	119.75
412.137	9.75
412.248	29.75
412.359	35.75
412.47	-43.25
412.58	-8.25
412.691	37.75
412.802	34.75
412.912	9.75
413.023	50.75
413.134	24.75
413.245	85.75
413.355	15.75
413.466	19.75
413.577	-27.25
413.687	63.75
413.798	-1.25
413.909	83.75
414.019	13.75
414.13	66.75
414.24	-21.25
414.351	39.75
414.462	179.75
414.572	73.75
414.683	73.75
414.793	-19.25
414.904	354.75
415.014	9.75
415.125	-8.25
415.235	53.75
415.346	114.75
415.456	139.75
415.567	62.75
415.677	31.75
415.788	71.75
415.898	21.75
416.009	43.75
416.119	35.75
416.23	16.75
416.34	-2.25
416.45	37.75
416.561	885.75
416.671	210.75
416.782	-57.25
416.892	-38.25
417.002	56.75
417.113	73.75
417.223	9.75
417.333	-3.25
417.444	10.75
417.554	28.75
417.664	53.75
417.775	-6.25
417.885	-9.25
417.995	33.75
418.106	153.75
418.216	57.75
418.326	28.75
418.436	15.75
418.547	-13.25
418.657	-58.25
418.767	105.75
418.877	59.75
418.987	-18.25
419.098	3.75
419.208	36.75
419.318	86.75
419.428	52.75
419.538	32.75
419.648	29.75
419.759	54.75
419.869	113.75
419.979	33.75
420.089	12.75
420.199	-28.25
420.309	71.75
420.419	78.75
420.529	26.75
420.639	601.75
420.749	78.75
420.859	57.75
420.969	81.75
421.079	229.75
421.189	137.75
421.299	93.75
421.409	-22.25
421.519	94.75
421.629	110.75
421.739	53.75
421.849	-7.25
421.959	-68.25
422.069	87.75
422.179	-8.25
422.289	-25.25
422.399	43.75
422.509	80.75
422.619	3512.75
422.729	389.75
422.838	-16.25
422.948	15.75
423.058	-16.25
423.168	30.75
423.278	-14.25
423.388	4.75
423.498	115.75
423.607	6.75
423.717	256.75
423.827	344.75
423.937	35.75
424.046	88.75
424.156	95.75
424.266	-2.25
424.376	181.75
424.485	184.75
424.595	54.75
424.705	-31.25
424.815	34.75
424.924	510.75
425.034	81.75
425.144	-48.25
425.253	55.75
425.363	30.75
425.473	50.75
425.582	-2.25
425.692	-7.25
425.801	-55.25
425.911	131.75
426.021	77.75
426.13	113.75
426.24	225.75
426.349	179.75
426.459	40.75
426.568	-18.25
426.678	172.75
426.787	53.75
426.897	12.75
427.006	35.75
427.116	76.75
427.225	-30.25
427.335	81.75
427.444	20.75
427.554	70.75
427.663	6.75
427.773	31.75
427.882	62.75
427.992	-28.25
428.101	41.75
428.21	-35.25
428.32	-22.25
428.429	-30.25
428.539	273.75
428.648	4.75
428.757	73.75
428.867	33.75
428.976	137.75
429.085	35.75
429.195	6.75
429.304	3.75
429.413	53.75
429.523	127.75
429.632	85.75
429.741	35.75
429.85	6.75
429.96	38.75
430.069	-22.25
430.178	-29.25
430.287	306.75
430.397	2.75
430.506	17.75
430.615	21.75
430.724	-10.25
430.833	39.75
430.943	48.75
431.052	28.75
431.161	-18.25
431.27	22.75
431.379	11.75
431.488	98.75
431.597	42.75
431.706	94.75
431.816	-18.25
431.925	-3.25
432.034	18.75
432.143	23.75
432.252	4.75
432.361	106.75
432.47	21.75
432.579	20.75
432.688	14.75
432.797	30.75
432.906	-37.25
433.015	30.75
433.124	425.75
433.233	53.75
433.342	64.75
433.451	74.75
433.56	-5.25
433.669	-7.25
433.778	66.75
433.886	42.75
433.995	-5.25
434.104	145.75
434.213	57.75
434.322	-51.25
434.431	106.75
434.54	45.75
434.649	139.75
434.757	24.75
434.866	11.75
434.975	75.75
435.084	68.75
435.193	119.75
435.301	257.75
435.41	383.75
435.519	528.75
435.628	93.75
435.737	-14.25
435.845	-19.25
435.954	-2.25
436.063	41.75
436.171	17.75
436.28	122.75
436.389	111.75
436.498	57.75
436.606	75.75
436.715	166.75
436.823	32.75
436.932	-3.25
437.041	42.75
437.149	54.75
437.258	43.75
437.367	40.75
437.475	-43.25
437.584	241.75
437.692	83.75
437.801	1544.75
437.91	223.75
438.018	27.75
438.127	-26.25
438.235	94.75
438.344	-6.25
438.452	68.75
438.561	-44.25
438.669	18.75
438.778	-9.25
438.886	5.75
438.995	-19.25
439.103	38.75
439.212	-16.25
439.32	-15.25
439.428	16.75
439.537	14.75
439.645	76.75
439.754	48.75
439.862	6.75
439.97	40.75
440.079	5.75
440.187	-6.25
440.295	102.75
440.404	-17.25
440.512	58.75
440.62	33.75
440.729	57.75
440.837	95.75
440.945	715.75
441.054	78.75
441.162	17.75
441.27	124.75
441.378	-14.25
441.487	5.75
441.595	401.75
441.703	123.75
441.811	42.75
441.92	67.75
442.028	-13.25
442.136	17.75
442.244	87.75
442.352	11.75
442.461	-67.25
442.569	-52.25
442.677	8.75
442.785	21.75
442.893	-19.25
443.001	2.75
443.109	-28.25
443.217	-64.25
443.325	19.75
443.434	457.75
443.542	208.75
443.65	28.75
443.758	114.75
443.866	-6.25
443.974	294.75
444.082	90.75
444.19	1.75
444.298	7.75
444.406	102.75
444.514	-17.25
444.622	60.75
444.73	105.75
444.838	26.75
444.946	71.75
445.054	25.75
445.161	36.75
445.269	-48.25
445.377	41.75
445.485	53.75
445.593	30.75
445.701	247.75
445.809	152.75
445.917	82.75
446.025	-50.25
446.132	148.75
446.24	80.75
446.348	33.75
446.456	-4.25
446.564	13.75
446.671	57.75
446.779	33.75
446.887	17.75
446.995	39.75
447.102	35.75
447.21	126.75
447.318	50.75
447.426	-11.25
447.533	289.75
447.641	1212.75
447.749	172.75
447.856	28.75
447.964	59.75
448.072	120.75
448.179	10.75
448.287	91.75
448.395	67.75
448.502	1.75
448.61	90.75
448.718	10.75
448.825	91.75
448.933	61.75
449.04	-35.25
449.148	39.75
449.256	42.75
449.363	35.75
449.471	19.75
449.578	92.75
449.686	23.75
449.793	100.75
449.901	21.75
450.008	82.75
450.116	46.75
450.223	-8.25
450.331	110.75
450.438	27.75
450.546	13.75
450.653	127.75
450.76	55.75
450.868	30.75
450.975	224.75
451.083	26.75
451.19	75.75
451.297	35.75
451.405	124.75
451.512	5.75
451.619	137.75
451.727	183.75
451.834	2.75
451.941	-4.25
452.049	34.75
452.156	41.75
452.263	47.75
452.371	33.75
452.478	118.75
452.585	148.75
452.692	6.75
452.8	83.75
452.907	164.75
453.014	66.75
453.121	-2.25
453.229	59.75
453.336	73.75
453.443	157.75
453.55	10.75
453.657	42.75
453.765	75.75
453.872	117.75
453.979	118.75
454.086	4.75
454.193	78.75
454.3	43.75
454.407	182.75
454.514	192.75
454.621	12.75
454.729	19.75
454.836	86.75
454.943	56.75
455.05	75.75
455.157	131.75
455.264	75.75
455.371	60.75
455.478	4.75
455.585	1296.75
455.692	214.75
455.799	184.75
455.906	62.75
456.013	-14.25
456.12	-3.25
456.227	67.75
456.334	69.75
456.44	142.75
456.547	63.75
456.654	28.75
456.761	28.75
456.868	93.75
456.975	135.75
457.082	7.75
457.189	-19.25
457.296	67.75
457.402	17.75
457.509	-9.25
457.616	77.75
457.723	195.75
457.83	59.75
457.936	37.75
458.043	350.75
458.15	46.75
458.257	98.75
458.363	106.75
458.47	13.75
458.577	87.75
458.684	67.75
458.79	32.75
458.897	35.75
459.004	104.75
459.11	44.75
459.217	22.75
459.324	108.75
459.43	172.75
459.537	291.75
459.644	63.75
459.75	85.75
459.857	389.75
459.964	79.75
460.07	119.75
460.177	81.75
460.283	109.75
460.39	221.75
460.496	90.75
460.603	102.75
460.71	104.75
460.816	59.75
460.923	29.75
461.029	97.75
461.136	129.75
461.242	24.75
461.349	93.75
461.455	67.75
461.562	382.75
461.668	183.75
461.774	78.75
461.881	162.75
461.987	98.75
462.094	76.75
462.2	111.75
462.307	97.75
462.413	54.75
462.519	46.75
462.626	143.75
462.732	62.75
462.838	74.75
462.945	134.75
463.051	94.75
463.157	67.75
463.264	81.75
463.37	119.75
463.476	88.75
463.583	128.75
463.689	-5.25
463.795	46.75
463.901	143.75
464.008	174.75
464.114	37.75
464.22	27.75
464.326	90.75
464.433	31.75
464.539	66.75
464.645	53.75
464.751	249.75
464.857	128.75
464.963	54.75
465.07	107.75
465.176	106.75
465.282	140.75
465.388	159.75
465.494	44.75
465.6	118.75
465.706	14.75
465.812	-24.25
465.918	119.75
466.024	76.75
466.131	99.75
466.237	41.75
466.343	54.75
466.449	3.75
466.555	9.75
466.661	43.75
466.767	-10.25
466.873	56.75
466.979	244.75
467.085	31.75
467.191	49.75
467.296	20.75
467.402	18.75
467.508	91.75
467.614	217.75
467.72	84.75
467.826	6.75
467.932	32.75
468.038	54.75
468.144	37.75
468.25	37.75
468.355	24.75
468.461	79.75
468.567	-20.25
468.673	60.75
468.779	51.75
468.885	-14.25
468.99	-31.25
469.096	66.75
469.202	100.75
469.308	83.75
469.413	135.75
469.519	26.75
469.625	20.75
469.731	67.75
469.836	11.75
469.942	183.75
470.048	74.75
470.153	108.75
470.259	51.75
470.365	149.75
470.47	136.75
470.576	55.75
470.682	61.75
470.787	74.75
470.893	-4.25
470.999	55.75
471.104	147.75
471.21	26.75
471.315	-62.25
471.421	6.75
471.527	226.75
471.632	100.75
471.738	91.75
471.843	58.75
471.949	76.75
472.054	73.75
472.16	45.75
472.265	28.75
472.371	-7.25
472.476	95.75
472.582	129.75
472.687	33.75
472.793	-14.25
472.898	69.75
473.003	19.75
473.109	-8.25
473.214	15.75
473.32	-30.25
473.425	70.75
473.53	80.75
473.636	21.75
473.741	-21.25
473.847	30.75
473.952	46.75
474.057	114.75
474.163	116.75
474.268	34.75
474.373	73.75
474.478	10.75
474.584	41.75
474.689	57.75
474.794	38.75
474.9	310.75
475.005	31.75
475.11	165.75
475.215	14.75
475.321	43.75
475.426	225.75
475.531	178.75
475.636	57.75
475.741	-7.25
475.846	150.75
475.952	258.75
476.057	147.75
476.162	127.75
476.267	222.75
476.372	337.75
476.477	69.75
476.582	199.75
476.687	5.75
476.793	33.75
476.898	51.75
477.003	126.75
477.108	42.75
477.213	-5.25
477.318	51.75
477.423	26.75
477.528	117.75
477.633	153.75
477.738	63.75
477.843	39.75
477.948	65.75
478.053	45.75
478.158	41.75
478.263	86.75
478.368	44.75
478.473	104.75
478.578	58.75
478.682	24.75
478.787	66.75
478.892	23.75
478.997	144.75
479.102	22.75
479.207	19.75
479.312	170.75
479.417	89.75
479.521	-3.25
479.626	121.75
479.731	85.75
479.836	25.75
479.941	139.75
480.045	121.75
480.15	109.75
480.255	67.75
480.36	19.75
480.465	79.75
480.569	210.75
480.674	109.75
480.779	-33.25
480.883	-6.25
480.988	47.75
481.093	55.75
481.197	33.75
481.302	61.75
481.407	164.75
481.511	1423.75
481.616	197.75
481.721	131.75
481.825	254.75
481.93	43.75
482.035	37.75
482.139	141.75
482.244	69.75
482.348	54.75
482.453	98.75
482.557	129.75
482.662	93.75
482.767	51.75
482.871	7.75
482.976	8.75
483.08	67.75
483.185	212.75
483.289	30.75
483.394	66.75
483.498	103.75
483.603	-6.25
483.707	65.75
483.811	152.75
483.916	123.75
484.02	2.75
484.125	152.75
484.229	88.75
484.333	133.75
484.438	73.75
484.542	42.75
484.647	1.75
484.751	57.75
484.855	55.75
484.96	24.75
485.064	65.75
485.168	73.75
485.273	-1.25
485.377	47.75
485.481	297.75
485.585	17.75
485.69	-7.25
485.794	110.75
485.898	64.75
486.002	46.75
486.107	120.75
486.211	88.75
486.315	67.75
486.419	136.75
486.524	131.75
486.628	22.75
486.732	10.75
486.836	119.75
486.94	71.75
487.044	79.75
487.148	68.75
487.253	23.75
487.357	36.75
487.461	220.75
487.565	98.75
487.669	40.75
487.773	53.75
487.877	185.75
487.981	94.75
488.085	90.75
488.189	115.75
488.293	176.75
488.397	525.75
488.501	217.75
488.605	54.75
488.709	73.75
488.813	91.75
488.917	24.75
489.021	74.75
489.125	324.75
489.229	104.75
489.333	176.75
489.437	93.75
489.541	142.75
489.645	43.75
489.749	68.75
489.853	145.75
489.956	57.75
490.06	107.75
490.164	115.75
490.268	85.75
490.372	65.75
490.476	87.75
490.579	105.75
490.683	674.75
490.787	210.75
490.891	125.75
490.995	116.75
491.098	105.75
491.202	110.75
491.306	75.75
491.41	97.75
491.513	104.75
491.617	73.75
491.721	228.75
491.824	376.75
491.928	151.75
492.032	308.75
492.136	97.75
492.239	73.75
492.343	54.75
492.446	440.75
492.55	205.75
492.654	27.75
492.757	14.75
492.861	157.75
492.965	87.75
493.068	100.75
493.172	64.75
493.275	106.75
493.379	34.75
493.482	184.75
493.586	221.75
493.689	292.75
493.793	70.75
493.896	218.75
494	152.75
494.103	179.75
494.207	398.75
494.31	457.75
494.414	119.75
494.517	72.75
494.621	92.75
494.724	79.75
494.828	64.75
494.931	93.75
495.034	46.75
495.138	219.75
495.241	96.75
495.345	748.75
495.448	224.75
495.551	100.75
495.655	89.75
495.758	17.75
495.861	50.75
495.965	96.75
496.068	97.75
496.171	136.75
496.274	98.75
496.378	67.75
496.481	106.75
496.584	115.75
496.687	125.75
496.791	150.75
496.894	144.75
496.997	110.75
497.1	64.75
497.204	84.75
497.307	65.75
497.41	197.75
497.513	291.75
497.616	109.75
497.719	18.75
497.823	32.75
497.926	73.75
498.029	57.75
498.132	103.75
498.235	118.75
498.338	111.75
498.441	177.75
498.544	90.75
498.647	124.75
498.75	174.75
498.853	265.75
498.956	138.75
499.059	265.75
499.163	91.75
499.266	174.75
499.369	122.75
499.471	77.75
499.574	215.75
499.677	137.75
499.78	116.75
499.883	92.75
499.986	189.75
500.089	95.75
500.192	120.75
500.295	166.75
500.398	137.75
500.501	155.75
500.604	130.75
500.707	37.75
500.809	101.75
500.912	224.75
501.015	230.75
501.118	104.75
501.221	188.75
501.324	167.75
501.426	153.75
501.529	101.75
501.632	185.75
501.735	77.75
501.837	73.75
501.94	136.75
502.043	72.75
502.146	115.75
502.248	150.75
502.351	77.75
502.454	78.75
502.557	57.75
502.659	151.75
502.762	84.75
502.865	59.75
502.967	91.75
503.07	77.75
503.173	132.75
503.275	125.75
503.378	61.75
503.48	59.75
503.583	167.75
503.686	159.75
503.788	286.75
503.891	125.75
503.993	339.75
504.096	53.75
504.198	94.75
504.301	57.75
504.403	108.75
504.506	81.75
504.608	113.75
504.711	93.75
504.813	141.75
504.916	133.75
505.018	110.75
505.121	54.75
505.223	92.75
505.326	105.75
505.428	180.75
505.531	108.75
505.633	145.75
505.735	46.75
505.838	18.75
505.94	108.75
506.042	9.75
506.145	19.75
506.247	139.75
506.35	62.75
506.452	117.75
506.554	102.75
506.656	134.75
506.759	50.75
506.861	117.75
506.963	118.75
507.066	97.75
507.168	167.75
507.27	74.75
507.372	62.75
507.475	43.75
507.577	105.75
507.679	87.75
507.781	1.75
507.883	71.75
507.986	73.75
508.088	70.75
508.19	97.75
508.292	134.75
508.394	43.75
508.496	5.75
508.598	76.75
508.701	55.75
508.803	42.75
508.905	31.75
509.007	70.75
509.109	132.75
509.211	118.75
509.313	83.75
509.415	2.75
509.517	92.75
509.619	47.75
509.721	77.75
509.823	79.75
509.925	241.75
510.027	60.75
510.129	72.75
510.231	109.75
510.333	19.75
510.435	-6.25
510.537	108.75
510.639	124.75
510.741	58.75
510.843	130.75
510.945	122.75
511.047	114.75
511.148	94.75
511.25	76.75
511.352	66.75
511.454	-20.25
511.556	125.75
511.658	94.75
511.76	105.75
511.861	172.75
511.963	68.75
512.065	33.75
512.167	49.75
512.268	240.75
512.37	123.75
512.472	79.75
512.574	165.75
512.676	132.75
512.777	36.75
512.879	51.75
512.981	48.75
513.082	97.75
513.184	89.75
513.286	518.75
513.387	153.75
513.489	199.75
513.591	169.75
513.692	122.75
513.794	103.75
513.896	13.75
513.997	26.75
514.099	11.75
514.2	94.75
514.302	93.75
514.404	30.75
514.505	-4.25
514.607	127.75
514.708	28.75
514.81	106.75
514.911	157.75
515.013	131.75
515.114	125.75
515.216	93.75
515.317	62.75
515.419	42.75
515.52	110.75
515.622	109.75
515.723	105.75
515.825	195.75
515.926	143.75
516.027	36.75
516.129	-7.25
516.23	103.75
516.332	93.75
516.433	66.75
516.534	209.75
516.636	38.75
516.737	-3.25
516.838	997.75
516.94	252.75
517.041	44.75
517.142	171.75
517.244	227.75
517.345	110.75
517.446	142.75
517.547	183.75
517.649	59.75
517.75	103.75
517.851	89.75
517.952	348.75
518.054	121.75
518.155	246.75
518.256	113.75
518.357	229.75
518.458	42.75
518.56	75.75
518.661	86.75
518.762	111.75
518.863	248.75
518.964	196.75
519.065	67.75
519.166	106.75
519.268	16.75
519.369	281.75
519.47	136.75
519.571	135.75
519.672	18.75
519.773	40.75
519.874	178.75
519.975	146.75
520.076	102.75
520.177	225.75
520.278	95.75
520.379	80.75
520.48	47.75
520.581	65.75
520.682	32.75
520.783	47.75
520.884	180.75
520.985	130.75
521.086	97.75
521.187	196.75
521.288	70.75
521.389	133.75
521.489	130.75
521.59	49.75
521.691	117.75
521.792	79.75
521.893	206.75
521.994	238.75
522.095	131.75
522.195	236.75
522.296	227.75
522.397	211.75
522.498	200.75
522.599	26.75
522.699	117.75
522.8	181.75
522.901	195.75
523.002	124.75
523.102	340.75
523.203	147.75
523.304	229.75
523.405	93.75
523.505	134.75
523.606	145.75
523.707	165.75
523.807	192.75
523.908	106.75
524.009	234.75
524.109	190.75
524.21	55.75
524.31	206.75
524.411	256.75
524.512	261.75
524.612	182.75
524.713	304.75
524.813	151.75
524.914	351.75
525.014	5011.75
525.115	625.75
525.216	68.75
525.316	150.75
525.417	218.75
525.517	82.75
525.618	79.75
525.718	98.75
525.819	56.75
525.919	127.75
526.019	105.75
526.12	196.75
526.22	52.75
526.321	84.75
526.421	78.75
526.522	60.75
526.622	40.75
526.722	107.75
526.823	108.75
526.923	136.75
527.023	254.75
527.124	114.75
527.224	193.75
527.324	56.75
527.425	207.75
527.525	53.75
527.625	97.75
527.726	141.75
527.826	213.75
527.926	115.75
528.026	160.75
528.127	66.75
528.227	93.75
528.327	203.75
528.427	120.75
528.528	130.75
528.628	146.75
528.728	148.75
528.828	195.75
528.928	221.75
529.029	187.75
529.129	149.75
529.229	162.75
529.329	172.75
529.429	175.75
529.529	185.75
529.629	204.75
529.729	138.75
529.829	270.75
529.93	109.75
530.03	204.75
530.13	150.75
530.23	172.75
530.33	318.75
530.43	130.75
530.53	171.75
530.63	203.75
530.73	61.75
530.83	41.75
530.93	108.75
531.03	60.75
531.13	153.75
531.23	69.75
531.33	181.75
531.429	169.75
531.529	284.75
531.629	200.75
531.729	44.75
531.829	30.75
531.929	82.75
532.029	131.75
532.129	116.75
532.229	153.75
532.328	133.75
532.428	68.75
532.528	79.75
532.628	74.75
532.728	103.75
532.827	49.75
532.927	195.75
533.027	108.75
533.127	210.75
533.227	200.75
533.326	146.75
533.426	93.75
533.526	266.75
533.625	276.75
533.725	387.75
533.825	224.75
533.924	119.75
534.024	29.75
534.124	53.75
534.223	197.75
534.323	485.75
534.423	164.75
534.522	203.75
534.622	69.75
534.722	93.75
534.821	171.75
534.921	87.75
535.02	49.75
535.12	152.75
535.219	266.75
535.319	152.75
535.419	183.75
535.518	175.75
535.618	142.75
535.717	211.75
535.817	98.75
535.916	2.75
536.016	163.75
536.115	122.75
536.215	99.75
536.314	9.75
536.413	43.75
536.513	135.75
536.612	37.75
536.712	26.75
536.811	130.75
536.91	27.75
537.01	54.75
537.109	142.75
537.209	77.75
537.308	36.75
537.407	137.75
537.507	119.75
537.606	54.75
537.705	169.75
537.805	137.75
537.904	6.75
538.003	95.75
538.102	244.75
538.202	119.75
538.301	189.75
538.4	179.75
538.499	121.75
538.599	130.75
538.698	330.75
538.797	137.75
538.896	198.75
538.995	161.75
539.095	123.75
539.194	327.75
539.293	101.75
539.392	166.75
539.491	83.75
539.59	115.75
539.689	309.75
539.789	213.75
539.888	30.75
539.987	27.75
540.086	101.75
540.185	68.75
540.284	106.75
540.383	150.75
540.482	70.75
540.581	92.75
540.68	137.75
540.779	165.75
540.878	114.75
540.977	235.75
541.076	107.75
541.175	174.75
541.274	397.75
541.373	223.75
541.472	160.75
541.571	96.75
541.67	1500.75
541.769	335.75
541.868	142.75
541.966	240.75
542.065	126.75
542.164	160.75
542.263	153.75
542.362	160.75
542.461	186.75
542.56	216.75
542.658	206.75
542.757	107.75
542.856	90.75
542.955	125.75
543.054	69.75
543.152	250.75
543.251	168.75
543.35	236.75
543.449	181.75
543.547	189.75
543.646	102.75
543.745	146.75
543.843	241.75
543.942	181.75
544.041	114.75
544.14	176.75
544.238	185.75
544.337	328.75
544.436	193.75
544.534	351.75
544.633	196.75
544.731	120.75
544.83	194.75
544.929	159.75
545.027	121.75
545.126	140.75
545.224	246.75
545.323	147.75
545.421	148.75
545.52	173.75
545.619	126.75
545.717	141.75
545.816	287.75
545.914	198.75
546.013	422.75
546.111	355.75
546.209	137.75
546.308	90.75
546.406	180.75
546.505	309.75
546.603	167.75
546.702	117.75
546.8	210.75
546.899	88.75
546.997	196.75
547.095	259.75
547.194	160.75
547.292	184.75
547.39	285.75
547.489	167.75
547.587	459.75
547.685	189.75
547.784	406.75
547.882	244.75
547.98	119.75
548.079	237.75
548.177	138.75
548.275	105.75
548.373	335.75
548.472	136.75
548.57	190.75
548.668	294.75
548.766	128.75
548.864	271.75
548.963	148.75
549.061	349.75
549.159	138.75
549.257	207.75
549.355	194.75
549.454	118.75
549.552	181.75
549.65	229.75
549.748	108.75
549.846	109.75
549.944	172.75
550.042	113.75
550.14	149.75
550.238	173.75
550.336	124.75
550.434	100.75
550.532	103.75
550.631	304.75
550.729	172.75
550.827	195.75
