Data from 35g_HRC06701__37__464.txt Node

Date: Thu Apr 18 02:32:09 CDT 2024
User: Estudiantes 2
Spectrometer: HR+C0670
Trigger mode: 4
Integration Time (sec): 1.000000E0
Scans to average: 1
Electric dark correction enabled: true
Nonlinearity correction enabled: false
Boxcar width: 0
XAxis mode: Wavelengths
Number of Pixels in Spectrum: 2048
>>>>>Begin Spectral Data<<<<<
407.81	-149.94
407.921	-149.94
408.032	-149.94
408.143	-107.94
408.254	-134.94
408.365	44.06
408.476	258.06
408.587	-9.94
408.699	-38.94
408.81	-2.94
408.921	-29.94
409.032	-36.94
409.143	41.06
409.254	48.06
409.365	88.06
409.476	-36.94
409.587	-16.94
409.698	86.06
409.809	85.06
409.92	-54.94
410.031	17.06
410.142	55.06
410.253	32.06
410.364	103.06
410.475	119.06
410.585	896.06
410.696	1012.06
410.807	937.06
410.918	940.06
411.029	1049.06
411.14	1039.06
411.251	956.06
411.362	1032.06
411.472	1115.06
411.583	1020.06
411.694	1053.06
411.805	1054.06
411.916	1011.06
412.026	1061.06
412.137	1035.06
412.248	992.06
412.359	951.06
412.47	971.06
412.58	921.06
412.691	982.06
412.802	999.06
412.912	1000.06
413.023	976.06
413.134	981.06
413.245	1098.06
413.355	930.06
413.466	920.06
413.577	1012.06
413.687	1032.06
413.798	900.06
413.909	1053.06
414.019	1014.06
414.13	986.06
414.24	922.06
414.351	1078.06
414.462	1219.06
414.572	1056.06
414.683	1076.06
414.793	933.06
414.904	1348.06
415.014	1071.06
415.125	927.06
415.235	981.06
415.346	1168.06
415.456	1167.06
415.567	984.06
415.677	1035.06
415.788	1114.06
415.898	946.06
416.009	907.06
416.119	1057.06
416.23	938.06
416.34	905.06
416.45	1040.06
416.561	1660.06
416.671	1106.06
416.782	948.06
416.892	1002.06
417.002	1057.06
417.113	1098.06
417.223	1047.06
417.333	993.06
417.444	989.06
417.554	1094.06
417.664	1108.06
417.775	970.06
417.885	1109.06
417.995	1076.06
418.106	1226.06
418.216	1175.06
418.326	1209.06
418.436	1102.06
418.547	1096.06
418.657	1127.06
418.767	1221.06
418.877	1153.06
418.987	1223.06
419.098	1165.06
419.208	1136.06
419.318	1235.06
419.428	1175.06
419.538	1074.06
419.648	1201.06
419.759	1247.06
419.869	1215.06
419.979	1105.06
420.089	1205.06
420.199	1105.06
420.309	1166.06
420.419	1220.06
420.529	1132.06
420.639	1500.06
420.749	1270.06
420.859	1193.06
420.969	1182.06
421.079	1436.06
421.189	1289.06
421.299	1224.06
421.409	1164.06
421.519	1314.06
421.629	1314.06
421.739	1216.06
421.849	1235.06
421.959	1194.06
422.069	1249.06
422.179	1306.06
422.289	1241.06
422.399	1316.06
422.509	1376.06
422.619	3892.06
422.729	1589.06
422.838	1264.06
422.948	1443.06
423.058	1250.06
423.168	1315.06
423.278	1347.06
423.388	1347.06
423.498	1448.06
423.607	1434.06
423.717	1737.06
423.827	1661.06
423.937	1429.06
424.046	1591.06
424.156	1478.06
424.266	1417.06
424.376	1679.06
424.485	1573.06
424.595	1426.06
424.705	1466.06
424.815	1506.06
424.924	1905.06
425.034	1538.06
425.144	1380.06
425.253	1461.06
425.363	1522.06
425.473	1599.06
425.582	1358.06
425.692	1425.06
425.801	1466.06
425.911	1605.06
426.021	1500.06
426.13	1628.06
426.24	1731.06
426.349	1547.06
426.459	1539.06
426.568	1486.06
426.678	1646.06
426.787	1506.06
426.897	1532.06
427.006	1490.06
427.116	1576.06
427.225	1566.06
427.335	1582.06
427.444	1486.06
427.554	1675.06
427.663	1553.06
427.773	1483.06
427.882	1621.06
427.992	1558.06
428.101	1530.06
428.21	1585.06
428.32	1623.06
428.429	1515.06
428.539	1832.06
428.648	1626.06
428.757	1674.06
428.867	1649.06
428.976	1790.06
429.085	1639.06
429.195	1581.06
429.304	1580.06
429.413	1657.06
429.523	1731.06
429.632	1712.06
429.741	1725.06
429.85	1677.06
429.96	1739.06
430.069	1750.06
430.178	1700.06
430.287	1998.06
430.397	1816.06
430.506	1734.06
430.615	1715.06
430.724	1775.06
430.833	1828.06
430.943	1705.06
431.052	1830.06
431.161	1838.06
431.27	1807.06
431.379	1815.06
431.488	2094.06
431.597	1940.06
431.706	1967.06
431.816	1939.06
431.925	1867.06
432.034	1818.06
432.143	1932.06
432.252	1904.06
432.361	2001.06
432.47	1929.06
432.579	1999.06
432.688	1862.06
432.797	1873.06
432.906	1907.06
433.015	1960.06
433.124	2341.06
433.233	2031.06
433.342	2025.06
433.451	1879.06
433.56	1913.06
433.669	1959.06
433.778	1989.06
433.886	2073.06
433.995	2082.06
434.104	2184.06
434.213	2074.06
434.322	2170.06
434.431	2274.06
434.54	2244.06
434.649	2423.06
434.757	2317.06
434.866	2233.06
434.975	2273.06
435.084	2250.06
435.193	2174.06
435.301	2299.06
435.41	2453.06
435.519	2488.06
435.628	1975.06
435.737	1958.06
435.845	1858.06
435.954	1861.06
436.063	1916.06
436.171	1908.06
436.28	1890.06
436.389	2011.06
436.498	1937.06
436.606	1841.06
436.715	2066.06
436.823	1895.06
436.932	1780.06
437.041	1760.06
437.149	1850.06
437.258	1656.06
437.367	1642.06
437.475	1673.06
437.584	1960.06
437.692	1683.06
437.801	3353.06
437.91	1853.06
438.018	1629.06
438.127	1642.06
438.235	1733.06
438.344	1681.06
438.452	1635.06
438.561	1655.06
438.669	1579.06
438.778	1599.06
438.886	1657.06
438.995	1606.06
439.103	1581.06
439.212	1696.06
439.32	1686.06
439.428	1602.06
439.537	1625.06
439.645	1816.06
439.754	1683.06
439.862	1649.06
439.97	1714.06
440.079	1684.06
440.187	1659.06
440.295	1839.06
440.404	1716.06
440.512	1750.06
440.62	1866.06
440.729	1867.06
440.837	1889.06
440.945	2529.06
441.054	1975.06
441.162	1856.06
441.27	2045.06
441.378	2023.06
441.487	1950.06
441.595	2391.06
441.703	2147.06
441.811	1986.06
441.92	1899.06
442.028	1868.06
442.136	1999.06
442.244	1920.06
442.352	1876.06
442.461	1804.06
442.569	1748.06
442.677	1807.06
442.785	1947.06
442.893	1818.06
443.001	1827.06
443.109	1852.06
443.217	1811.06
443.325	1808.06
443.434	2471.06
443.542	2219.06
443.65	1942.06
443.758	2144.06
443.866	2058.06
443.974	2349.06
444.082	2140.06
444.19	2211.06
444.298	2275.06
444.406	2346.06
444.514	2371.06
444.622	2525.06
444.73	2392.06
444.838	2304.06
444.946	2339.06
445.054	2151.06
445.161	2044.06
445.269	2039.06
445.377	1972.06
445.485	2002.06
445.593	1969.06
445.701	2136.06
445.809	1952.06
445.917	1962.06
446.025	1766.06
446.132	1973.06
446.24	1925.06
446.348	1836.06
446.456	1776.06
446.564	1839.06
446.671	1924.06
446.779	1777.06
446.887	1752.06
446.995	1780.06
447.102	1834.06
447.21	1727.06
447.318	1782.06
447.426	1731.06
447.533	1921.06
447.641	3039.06
447.749	1916.06
447.856	1698.06
447.964	1764.06
448.072	1904.06
448.179	1665.06
448.287	1781.06
448.395	1809.06
448.502	1692.06
448.61	1740.06
448.718	1723.06
448.825	1791.06
448.933	1778.06
449.04	1739.06
449.148	1841.06
449.256	1772.06
449.363	1733.06
449.471	1846.06
449.578	1874.06
449.686	1755.06
449.793	1906.06
449.901	1794.06
450.008	1841.06
450.116	1952.06
450.223	1868.06
450.331	1866.06
450.438	1878.06
450.546	1978.06
450.653	2009.06
450.76	1997.06
450.868	2114.06
450.975	2150.06
451.083	1946.06
451.19	2084.06
451.297	1984.06
451.405	2018.06
451.512	1940.06
451.619	2183.06
451.727	2107.06
451.834	2026.06
451.941	2053.06
452.049	2015.06
452.156	2063.06
452.263	2164.06
452.371	2077.06
452.478	2106.06
452.585	2208.06
452.692	2044.06
452.8	2063.06
452.907	2261.06
453.014	2206.06
453.121	2119.06
453.229	2191.06
453.336	2254.06
453.443	2269.06
453.55	2042.06
453.657	2176.06
453.765	2212.06
453.872	2201.06
453.979	2251.06
454.086	2201.06
454.193	2149.06
454.3	2142.06
454.407	2336.06
454.514	2256.06
454.621	2186.06
454.729	2219.06
454.836	2264.06
454.943	2244.06
455.05	2314.06
455.157	2325.06
455.264	2216.06
455.371	2327.06
455.478	2316.06
455.585	2552.06
455.692	2402.06
455.799	2530.06
455.906	2350.06
456.013	2277.06
456.12	2398.06
456.227	2351.06
456.334	2413.06
456.44	2491.06
456.547	2336.06
456.654	2309.06
456.761	2440.06
456.868	2460.06
456.975	2483.06
457.082	2400.06
457.189	2401.06
457.296	2417.06
457.402	2508.06
457.509	2502.06
457.616	2573.06
457.723	2786.06
457.83	2648.06
457.936	2606.06
458.043	2936.06
458.15	2745.06
458.257	2748.06
458.363	2761.06
458.47	2839.06
458.577	3041.06
458.684	2900.06
458.79	3108.06
458.897	3135.06
459.004	3186.06
459.11	3185.06
459.217	3218.06
459.324	3353.06
459.43	3429.06
459.537	3788.06
459.644	3564.06
459.75	3564.06
459.857	4064.06
459.964	3883.06
460.07	3814.06
460.177	3936.06
460.283	3974.06
460.39	4079.06
460.496	3862.06
460.603	4148.06
460.71	3931.06
460.816	3922.06
460.923	3800.06
461.029	3832.06
461.136	3833.06
461.242	3891.06
461.349	3974.06
461.455	3909.06
461.562	4224.06
461.668	4155.06
461.774	4002.06
461.881	4212.06
461.987	4205.06
462.094	4296.06
462.2	4348.06
462.307	4384.06
462.413	4365.06
462.519	4546.06
462.626	4931.06
462.732	5042.06
462.838	5352.06
462.945	5424.06
463.051	5473.06
463.157	5203.06
463.264	4972.06
463.37	4853.06
463.476	4501.06
463.583	4458.06
463.689	4491.06
463.795	4443.06
463.901	4596.06
464.008	4703.06
464.114	4639.06
464.22	4539.06
464.326	4548.06
464.433	4336.06
464.539	4264.06
464.645	4149.06
464.751	4296.06
464.857	4000.06
464.963	3723.06
465.07	3685.06
465.176	3412.06
465.282	3433.06
465.388	3475.06
465.494	3252.06
465.6	3105.06
465.706	3049.06
465.812	2996.06
465.918	3132.06
466.024	2921.06
466.131	2903.06
466.237	2817.06
466.343	2650.06
466.449	2705.06
466.555	2729.06
466.661	2553.06
466.767	2578.06
466.873	2622.06
466.979	2766.06
467.085	2649.06
467.191	2678.06
467.296	2568.06
467.402	2517.06
467.508	2565.06
467.614	2674.06
467.72	2453.06
467.826	2377.06
467.932	2398.06
468.038	2320.06
468.144	2319.06
468.25	2327.06
468.355	2287.06
468.461	2300.06
468.567	2311.06
468.673	2273.06
468.779	2316.06
468.885	2334.06
468.99	2252.06
469.096	2313.06
469.202	2426.06
469.308	2336.06
469.413	2432.06
469.519	2400.06
469.625	2378.06
469.731	2441.06
469.836	2412.06
469.942	2681.06
470.048	2454.06
470.153	2417.06
470.259	2497.06
470.365	2640.06
470.47	2583.06
470.576	2462.06
470.682	2449.06
470.787	2339.06
470.893	2227.06
470.999	2434.06
471.104	2254.06
471.21	2208.06
471.315	2182.06
471.421	2061.06
471.527	2358.06
471.632	2239.06
471.738	2201.06
471.843	2149.06
471.949	2149.06
472.054	2128.06
472.16	2019.06
472.265	2081.06
472.371	2024.06
472.476	2032.06
472.582	2003.06
472.687	1953.06
472.793	1913.06
472.898	1974.06
473.003	1981.06
473.109	1940.06
473.214	1827.06
473.32	1882.06
473.425	1965.06
473.53	1911.06
473.636	1857.06
473.741	1861.06
473.847	1803.06
473.952	1932.06
474.057	2012.06
474.163	1960.06
474.268	1848.06
474.373	1929.06
474.478	1856.06
474.584	1861.06
474.689	1938.06
474.794	1949.06
474.9	2174.06
475.005	1878.06
475.11	2131.06
475.215	1884.06
475.321	1898.06
475.426	2168.06
475.531	2053.06
475.636	1867.06
475.741	1909.06
475.846	2031.06
475.952	2153.06
476.057	2017.06
476.162	2161.06
476.267	2087.06
476.372	2306.06
476.477	1968.06
476.582	2107.06
476.687	1954.06
476.793	2070.06
476.898	2051.06
477.003	2119.06
477.108	2092.06
477.213	2059.06
477.318	2086.06
477.423	2148.06
477.528	2323.06
477.633	2294.06
477.738	2259.06
477.843	2307.06
477.948	2356.06
478.053	2348.06
478.158	2357.06
478.263	2362.06
478.368	2371.06
478.473	2545.06
478.578	2494.06
478.682	2442.06
478.787	2638.06
478.892	2520.06
478.997	2579.06
479.102	2496.06
479.207	2543.06
479.312	2655.06
479.417	2581.06
479.521	2510.06
479.626	2661.06
479.731	2617.06
479.836	2628.06
479.941	2791.06
480.045	2775.06
480.15	2895.06
480.255	2857.06
480.36	2859.06
480.465	2802.06
480.569	2973.06
480.674	2773.06
480.779	2660.06
480.883	2667.06
480.988	2675.06
481.093	2598.06
481.197	2621.06
481.302	2630.06
481.407	2614.06
481.511	3953.06
481.616	2738.06
481.721	2532.06
481.825	2802.06
481.93	2573.06
482.035	2445.06
482.139	2649.06
482.244	2660.06
482.348	2537.06
482.453	2572.06
482.557	2689.06
482.662	2668.06
482.767	2611.06
482.871	2669.06
482.976	2717.06
483.08	2737.06
483.185	2871.06
483.289	2742.06
483.394	2800.06
483.498	2841.06
483.603	2837.06
483.707	2900.06
483.811	2985.06
483.916	3069.06
484.02	3018.06
484.125	3022.06
484.229	3021.06
484.333	3156.06
484.438	3004.06
484.542	3010.06
484.647	3144.06
484.751	3117.06
484.855	3138.06
484.96	3186.06
485.064	3262.06
485.168	3227.06
485.273	3162.06
485.377	3321.06
485.481	3482.06
485.585	3297.06
485.69	3366.06
485.794	3460.06
485.898	3267.06
486.002	3406.06
486.107	3364.06
486.211	3335.06
486.315	3434.06
486.419	3408.06
486.524	3411.06
486.628	3351.06
486.732	3344.06
486.836	3388.06
486.94	3496.06
487.044	3484.06
487.148	3381.06
487.253	3352.06
487.357	3407.06
487.461	3534.06
487.565	3448.06
487.669	3404.06
487.773	3417.06
487.877	3441.06
487.981	3439.06
488.085	3508.06
488.189	3355.06
488.293	3559.06
488.397	4023.06
488.501	3454.06
488.605	3355.06
488.709	3388.06
488.813	3323.06
488.917	3339.06
489.021	3420.06
489.125	3656.06
489.229	3343.06
489.333	3524.06
489.437	3483.06
489.541	3433.06
489.645	3397.06
489.749	3474.06
489.853	3370.06
489.956	3409.06
490.06	3457.06
490.164	3335.06
490.268	3351.06
490.372	3448.06
490.476	3372.06
490.579	3304.06
490.683	4107.06
490.787	3480.06
490.891	3357.06
490.995	3427.06
491.098	3398.06
491.202	3288.06
491.306	3356.06
491.41	3448.06
491.513	3321.06
491.617	3389.06
491.721	3573.06
491.824	3530.06
491.928	3298.06
492.032	3630.06
492.136	3408.06
492.239	3366.06
492.343	3399.06
492.446	3870.06
492.55	3432.06
492.654	3331.06
492.757	3325.06
492.861	3414.06
492.965	3307.06
493.068	3388.06
493.172	3375.06
493.275	3312.06
493.379	3359.06
493.482	3552.06
493.586	3447.06
493.689	3611.06
493.793	3387.06
493.896	3475.06
494	3507.06
494.103	3606.06
494.207	3772.06
494.31	3820.06
494.414	3542.06
494.517	3439.06
494.621	3317.06
494.724	3381.06
494.828	3370.06
494.931	3339.06
495.034	3373.06
495.138	3527.06
495.241	3273.06
495.345	4232.06
495.448	3493.06
495.551	3229.06
495.655	3339.06
495.758	3363.06
495.861	3308.06
495.965	3312.06
496.068	3292.06
496.171	3361.06
496.274	3332.06
496.378	3381.06
496.481	3484.06
496.584	3400.06
496.687	3500.06
496.791	3512.06
496.894	3494.06
496.997	3541.06
497.1	3661.06
497.204	3635.06
497.307	3585.06
497.41	3857.06
497.513	3976.06
497.616	3797.06
497.719	3805.06
497.823	3934.06
497.926	4019.06
498.029	4154.06
498.132	4243.06
498.235	4243.06
498.338	4448.06
498.441	4769.06
498.544	4673.06
498.647	4901.06
498.75	5191.06
498.853	5567.06
498.956	5499.06
499.059	5968.06
499.163	5946.06
499.266	6318.06
499.369	6588.06
499.471	6820.06
499.574	7330.06
499.677	7709.06
499.78	8228.06
499.883	8713.06
499.986	9264.06
500.089	9700.06
500.192	9931.06
500.295	9865.06
500.398	9823.06
500.501	9614.06
500.604	9125.06
500.707	8766.06
500.809	8259.06
500.912	7910.06
501.015	7465.06
501.118	6994.06
501.221	6642.06
501.324	6119.06
501.426	5830.06
501.529	5588.06
501.632	5294.06
501.735	4965.06
501.837	4768.06
501.94	4582.06
502.043	4521.06
502.146	4532.06
502.248	4253.06
502.351	4111.06
502.454	4099.06
502.557	3923.06
502.659	3914.06
502.762	3684.06
502.865	3671.06
502.967	3416.06
503.07	3492.06
503.173	3573.06
503.275	3347.06
503.378	3254.06
503.48	3289.06
503.583	3296.06
503.686	3264.06
503.788	3494.06
503.891	3306.06
503.993	3498.06
504.096	3205.06
504.198	3355.06
504.301	3267.06
504.403	3383.06
504.506	3318.06
504.608	3099.06
504.711	3028.06
504.813	3042.06
504.916	2951.06
505.018	2755.06
505.121	2661.06
505.223	2698.06
505.326	2579.06
505.428	2692.06
505.531	2578.06
505.633	2517.06
505.735	2408.06
505.838	2405.06
505.94	2449.06
506.042	2327.06
506.145	2313.06
506.247	2426.06
506.35	2290.06
506.452	2403.06
506.554	2417.06
506.656	2290.06
506.759	2206.06
506.861	2280.06
506.963	2261.06
507.066	2288.06
507.168	2334.06
507.27	2223.06
507.372	2139.06
507.475	2218.06
507.577	2276.06
507.679	2219.06
507.781	2105.06
507.883	2146.06
507.986	2049.06
508.088	2144.06
508.19	2115.06
508.292	2180.06
508.394	2125.06
508.496	2086.06
508.598	2012.06
508.701	2123.06
508.803	2068.06
508.905	1975.06
509.007	2054.06
509.109	2178.06
509.211	2092.06
509.313	2010.06
509.415	1969.06
509.517	2085.06
509.619	1935.06
509.721	2059.06
509.823	1963.06
509.925	2170.06
510.027	1987.06
510.129	2011.06
510.231	1999.06
510.333	1888.06
510.435	1991.06
510.537	2069.06
510.639	2047.06
510.741	2002.06
510.843	2144.06
510.945	2023.06
511.047	2005.06
511.148	2038.06
511.25	1965.06
511.352	1971.06
511.454	1956.06
511.556	2020.06
511.658	1939.06
511.76	2068.06
511.861	2199.06
511.963	1955.06
512.065	1923.06
512.167	1930.06
512.268	2197.06
512.37	2034.06
512.472	1978.06
512.574	2011.06
512.676	2085.06
512.777	2000.06
512.879	2047.06
512.981	2007.06
513.082	1978.06
513.184	2067.06
513.286	2552.06
513.387	2167.06
513.489	2255.06
513.591	2148.06
513.692	2179.06
513.794	2124.06
513.896	1968.06
513.997	2016.06
514.099	2096.06
514.2	2153.06
514.302	2133.06
514.404	2104.06
514.505	2120.06
514.607	2168.06
514.708	2084.06
514.81	2322.06
514.911	2245.06
515.013	2277.06
515.114	2321.06
515.216	2234.06
515.317	2317.06
515.419	2284.06
515.52	2330.06
515.622	2354.06
515.723	2319.06
515.825	2602.06
515.926	2433.06
516.027	2400.06
516.129	2529.06
516.23	2480.06
516.332	2595.06
516.433	2735.06
516.534	2725.06
516.636	2752.06
516.737	2846.06
516.838	4008.06
516.94	3056.06
517.041	3085.06
517.142	3408.06
517.244	3306.06
517.345	3347.06
517.446	3443.06
517.547	3445.06
517.649	3407.06
517.75	3436.06
517.851	3313.06
517.952	3576.06
518.054	3260.06
518.155	3309.06
518.256	3031.06
518.357	3147.06
518.458	2921.06
518.56	2927.06
518.661	2948.06
518.762	2965.06
518.863	2903.06
518.964	2839.06
519.065	2735.06
519.166	2640.06
519.268	2521.06
519.369	2931.06
519.47	2616.06
519.571	2525.06
519.672	2447.06
519.773	2459.06
519.874	2491.06
519.975	2576.06
520.076	2508.06
520.177	2515.06
520.278	2405.06
520.379	2483.06
520.48	2338.06
520.581	2298.06
520.682	2408.06
520.783	2407.06
520.884	2397.06
520.985	2413.06
521.086	2433.06
521.187	2420.06
521.288	2328.06
521.389	2424.06
521.489	2320.06
521.59	2288.06
521.691	2443.06
521.792	2288.06
521.893	2439.06
521.994	2496.06
522.095	2411.06
522.195	2448.06
522.296	2446.06
522.397	2445.06
522.498	2402.06
522.599	2244.06
522.699	2401.06
522.8	2319.06
522.901	2420.06
523.002	2400.06
523.102	2490.06
523.203	2376.06
523.304	2560.06
523.405	2287.06
523.505	2358.06
523.606	2390.06
523.707	2460.06
523.807	2368.06
523.908	2294.06
524.009	2460.06
524.109	2373.06
524.21	2297.06
524.31	2474.06
524.411	2479.06
524.512	2529.06
524.612	2455.06
524.713	2577.06
524.813	2372.06
524.914	2708.06
525.014	8556.06
525.115	2910.06
525.216	2346.06
525.316	2407.06
525.417	2365.06
525.517	2355.06
525.618	2414.06
525.718	2251.06
525.819	2248.06
525.919	2405.06
526.019	2341.06
526.12	2388.06
526.22	2260.06
526.321	2381.06
526.421	2287.06
526.522	2275.06
526.622	2276.06
526.722	2301.06
526.823	2385.06
526.923	2376.06
527.023	2431.06
527.124	2318.06
527.224	2419.06
527.324	2271.06
527.425	2307.06
527.525	2282.06
527.625	2400.06
527.726	2317.06
527.826	2387.06
527.926	2374.06
528.026	2417.06
528.127	2359.06
528.227	2423.06
528.327	2459.06
528.427	2454.06
528.528	2453.06
528.628	2537.06
528.728	2375.06
528.828	2501.06
528.928	2608.06
529.029	2425.06
529.129	2479.06
529.229	2563.06
529.329	2444.06
529.429	2480.06
529.529	2533.06
529.629	2520.06
529.729	2319.06
529.829	2573.06
529.93	2342.06
530.03	2402.06
530.13	2301.06
530.23	2401.06
530.33	2383.06
530.43	2348.06
530.53	2416.06
530.63	2368.06
530.73	2244.06
530.83	2310.06
530.93	2271.06
531.03	2258.06
531.13	2391.06
531.23	2222.06
531.33	2319.06
531.429	2425.06
531.529	2578.06
531.629	2351.06
531.729	2213.06
531.829	2352.06
531.929	2296.06
532.029	2281.06
532.129	2330.06
532.229	2310.06
532.328	2334.06
532.428	2284.06
532.528	2209.06
532.628	2218.06
532.728	2280.06
532.827	2203.06
532.927	2346.06
533.027	2249.06
533.127	2477.06
533.227	2388.06
533.326	2395.06
533.426	2359.06
533.526	2357.06
533.625	2444.06
533.725	2611.06
533.825	2365.06
533.924	2175.06
534.024	2065.06
534.124	2169.06
534.223	2217.06
534.323	2627.06
534.423	2297.06
534.522	2172.06
534.622	2084.06
534.722	2162.06
534.821	2194.06
534.921	2100.06
535.02	2085.06
535.12	2290.06
535.219	2291.06
535.319	2241.06
535.419	2243.06
535.518	2083.06
535.618	2192.06
535.717	2317.06
535.817	1983.06
535.916	1926.06
536.016	2179.06
536.115	1988.06
536.215	1997.06
536.314	1946.06
536.413	1941.06
536.513	1951.06
536.612	1993.06
536.712	1957.06
536.811	1848.06
536.91	1823.06
537.01	1945.06
537.109	1993.06
537.209	1904.06
537.308	1941.06
537.407	1895.06
537.507	1891.06
537.606	1856.06
537.705	1958.06
537.805	1903.06
537.904	1838.06
538.003	1984.06
538.102	1983.06
