Data from 35g_HRC06701__57__484.txt Node

Date: Thu Apr 18 02:32:29 CDT 2024
User: Estudiantes 2
Spectrometer: HR+C0670
Trigger mode: 4
Integration Time (sec): 1.000000E0
Scans to average: 1
Electric dark correction enabled: true
Nonlinearity correction enabled: false
Boxcar width: 0
XAxis mode: Wavelengths
Number of Pixels in Spectrum: 2048
>>>>>Begin Spectral Data<<<<<
407.81	-116.94
407.921	-116.94
408.032	-116.94
408.143	-154.94
408.254	-159.94
408.365	47.06
408.476	296.06
408.587	-19.94
408.699	-2.94
408.81	11.06
408.921	-63.94
409.032	-43.94
409.143	68.06
409.254	-11.94
409.365	86.06
409.476	-21.94
409.587	23.06
409.698	65.06
409.809	101.06
409.92	-7.94
410.031	-36.94
410.142	72.06
410.253	52.06
410.364	15.06
410.475	771.06
410.585	4002.06
410.696	4148.06
410.807	4176.06
410.918	4184.06
411.029	4244.06
411.14	4142.06
411.251	4250.06
411.362	4346.06
411.472	4371.06
411.583	4331.06
411.694	4657.06
411.805	4516.06
411.916	4548.06
412.026	4468.06
412.137	4458.06
412.248	4300.06
412.359	4372.06
412.47	4200.06
412.58	3994.06
412.691	4235.06
412.802	4121.06
412.912	4222.06
413.023	4241.06
413.134	4265.06
413.245	4290.06
413.355	4207.06
413.466	4231.06
413.577	4163.06
413.687	4204.06
413.798	4120.06
413.909	4286.06
414.019	4308.06
414.13	4371.06
414.24	4299.06
414.351	4346.06
414.462	4626.06
414.572	4398.06
414.683	4343.06
414.793	4411.06
414.904	4740.06
415.014	4250.06
415.125	4225.06
415.235	4377.06
415.346	4427.06
415.456	4415.06
415.567	4299.06
415.677	4337.06
415.788	4350.06
415.898	4237.06
416.009	4341.06
416.119	4419.06
416.23	4246.06
416.34	4370.06
416.45	4320.06
416.561	4912.06
416.671	4385.06
416.782	4309.06
416.892	4363.06
417.002	4427.06
417.113	4592.06
417.223	4402.06
417.333	4384.06
417.444	4481.06
417.554	4557.06
417.664	4612.06
417.775	4573.06
417.885	4603.06
417.995	4631.06
418.106	4938.06
418.216	4871.06
418.326	4909.06
418.436	4971.06
418.547	4935.06
418.657	4995.06
418.767	5150.06
418.877	5140.06
418.987	5047.06
419.098	5013.06
419.208	5086.06
419.318	5005.06
419.428	5075.06
419.538	4985.06
419.648	5083.06
419.759	4943.06
419.869	4979.06
419.979	5104.06
420.089	5087.06
420.199	4972.06
420.309	5091.06
420.419	5074.06
420.529	4961.06
420.639	5269.06
420.749	5172.06
420.859	5191.06
420.969	5128.06
421.079	5362.06
421.189	5177.06
421.299	5115.06
421.409	5111.06
421.519	5272.06
421.629	5348.06
421.739	5263.06
421.849	5301.06
421.959	5419.06
422.069	5414.06
422.179	5469.06
422.289	5543.06
422.399	5794.06
422.509	5690.06
422.619	8984.06
422.729	5946.06
422.838	5727.06
422.948	5931.06
423.058	5818.06
423.168	5914.06
423.278	5989.06
423.388	6093.06
423.498	6295.06
423.607	6325.06
423.717	6488.06
423.827	6621.06
423.937	6307.06
424.046	6368.06
424.156	6446.06
424.266	6502.06
424.376	6604.06
424.485	6545.06
424.595	6507.06
424.705	6478.06
424.815	6343.06
424.924	7006.06
425.034	6522.06
425.144	6377.06
425.253	6497.06
425.363	6611.06
425.473	6589.06
425.582	6356.06
425.692	6510.06
425.801	6576.06
425.911	6785.06
426.021	6745.06
426.13	6758.06
426.24	6764.06
426.349	6831.06
426.459	6809.06
426.568	6636.06
426.678	6915.06
426.787	6828.06
426.897	6837.06
427.006	6864.06
427.116	7002.06
427.225	6814.06
427.335	7120.06
427.444	7065.06
427.554	6938.06
427.663	7012.06
427.773	7141.06
427.882	7184.06
427.992	7059.06
428.101	7239.06
428.21	7176.06
428.32	7243.06
428.429	7168.06
428.539	7600.06
428.648	7308.06
428.757	7352.06
428.867	7578.06
428.976	7730.06
429.085	7506.06
429.195	7624.06
429.304	7521.06
429.413	7579.06
429.523	7655.06
429.632	7722.06
429.741	7657.06
429.85	7668.06
429.96	7853.06
430.069	7820.06
430.178	7927.06
430.287	8205.06
430.397	7897.06
430.506	7871.06
430.615	7937.06
430.724	8169.06
430.833	8062.06
430.943	8034.06
431.052	8132.06
431.161	8175.06
431.27	8383.06
431.379	8496.06
431.488	8899.06
431.597	8895.06
431.706	9050.06
431.816	8805.06
431.925	8771.06
432.034	8687.06
432.143	8774.06
432.252	8593.06
432.361	8794.06
432.47	8646.06
432.579	8595.06
432.688	8640.06
432.797	8703.06
432.906	8612.06
433.015	8616.06
433.124	9085.06
433.233	8908.06
433.342	8754.06
433.451	8858.06
433.56	8933.06
433.669	8636.06
433.778	8812.06
433.886	9077.06
433.995	8932.06
434.104	9343.06
434.213	9348.06
434.322	9431.06
434.431	9839.06
434.54	10282.06
434.649	10361.06
434.757	10323.06
434.866	10162.06
434.975	9965.06
435.084	9671.06
435.193	9487.06
435.301	9520.06
435.41	9380.06
435.519	9386.06
435.628	8707.06
435.737	8543.06
435.845	8398.06
435.954	8329.06
436.063	8236.06
436.171	8418.06
436.28	8281.06
436.389	8752.06
436.498	8424.06
436.606	8456.06
436.715	8559.06
436.823	8175.06
436.932	8071.06
437.041	8140.06
437.149	8060.06
437.258	7889.06
437.367	7696.06
437.475	7741.06
437.584	8056.06
437.692	7725.06
437.801	9378.06
437.91	7618.06
438.018	7620.06
438.127	7525.06
438.235	7682.06
438.344	7623.06
438.452	7600.06
438.561	7370.06
438.669	7526.06
438.778	7390.06
438.886	7474.06
438.995	7432.06
439.103	7565.06
439.212	7582.06
439.32	7559.06
439.428	7533.06
439.537	7671.06
439.645	7863.06
439.754	7727.06
439.862	7663.06
439.97	7665.06
440.079	7875.06
440.187	7690.06
440.295	7887.06
440.404	7914.06
440.512	7903.06
440.62	7961.06
440.729	8064.06
440.837	8242.06
440.945	9019.06
441.054	8534.06
441.162	8564.06
441.27	8942.06
441.378	9057.06
441.487	8980.06
441.595	9487.06
441.703	9028.06
441.811	8759.06
441.92	8536.06
442.028	8463.06
442.136	8483.06
442.244	8322.06
442.352	8597.06
442.461	8260.06
442.569	8306.06
442.677	8427.06
442.785	8500.06
442.893	8297.06
443.001	8476.06
443.109	8244.06
443.217	8466.06
443.325	8307.06
443.434	9192.06
443.542	8828.06
443.65	8675.06
443.758	8983.06
443.866	8920.06
443.974	9327.06
444.082	9355.06
444.19	9568.06
444.298	9787.06
444.406	10000.06
444.514	10342.06
444.622	10566.06
444.73	10321.06
444.838	10061.06
444.946	9880.06
445.054	9404.06
445.161	9335.06
445.269	9051.06
445.377	8923.06
445.485	8873.06
445.593	8584.06
445.701	8750.06
445.809	8592.06
445.917	8407.06
446.025	8312.06
446.132	8546.06
446.24	8584.06
446.348	8375.06
446.456	8212.06
446.564	8439.06
446.671	8441.06
446.779	8199.06
446.887	8187.06
446.995	8018.06
447.102	8295.06
447.21	8164.06
447.318	8108.06
447.426	7945.06
447.533	8336.06
447.641	9497.06
447.749	8092.06
447.856	8100.06
447.964	8069.06
448.072	8178.06
448.179	8011.06
448.287	8067.06
448.395	8060.06
448.502	7985.06
448.61	8093.06
448.718	8115.06
448.825	8110.06
448.933	8185.06
449.04	8284.06
449.148	8179.06
449.256	8199.06
449.363	8360.06
449.471	8265.06
449.578	8370.06
449.686	8394.06
449.793	8680.06
449.901	8363.06
450.008	8528.06
450.116	8658.06
450.223	8708.06
450.331	8786.06
450.438	9037.06
450.546	9013.06
450.653	9131.06
450.76	9414.06
450.868	9325.06
450.975	9543.06
451.083	9467.06
451.19	9476.06
451.297	9387.06
451.405	9455.06
451.512	9606.06
451.619	9740.06
451.727	9608.06
451.834	9504.06
451.941	9595.06
452.049	9470.06
452.156	9753.06
452.263	9907.06
452.371	9746.06
452.478	9902.06
452.585	9805.06
452.692	9788.06
452.8	9828.06
452.907	10068.06
453.014	9801.06
453.121	10018.06
453.229	10153.06
453.336	9956.06
453.443	10096.06
453.55	10159.06
453.657	9998.06
453.765	10273.06
453.872	10186.06
453.979	10213.06
454.086	10203.06
454.193	10411.06
454.3	10300.06
454.407	10374.06
454.514	10503.06
454.621	10288.06
454.729	10233.06
454.836	10354.06
454.943	10580.06
455.05	10472.06
455.157	10660.06
455.264	10464.06
455.371	10626.06
455.478	10593.06
455.585	11152.06
455.692	10816.06
455.799	10983.06
455.906	10898.06
456.013	10802.06
456.12	10823.06
456.227	10919.06
456.334	11087.06
456.44	11163.06
456.547	11147.06
456.654	11044.06
456.761	11207.06
456.868	11233.06
456.975	11265.06
457.082	11351.06
457.189	11198.06
457.296	11347.06
457.402	11463.06
457.509	11397.06
457.616	11604.06
457.723	12093.06
457.83	11888.06
457.936	11992.06
458.043	12527.06
458.15	12071.06
458.257	12397.06
458.363	12496.06
458.47	12848.06
458.577	12981.06
458.684	13157.06
458.79	13810.06
458.897	13817.06
459.004	14310.06
459.11	14344.06
459.217	14267.06
459.324	14534.06
459.43	14581.06
459.537	14581.06
459.644	14581.06
459.75	14581.06
459.857	14581.06
459.964	14581.06
460.07	14581.06
460.177	14581.06
460.283	14581.06
460.39	14581.06
460.496	14581.06
460.603	14581.06
460.71	14581.06
460.816	14581.06
460.923	14581.06
461.029	14581.06
461.136	14581.06
461.242	14581.06
461.349	14581.06
461.455	14581.06
461.562	14581.06
461.668	14581.06
461.774	14581.06
461.881	14581.06
461.987	14581.06
462.094	14581.06
462.2	14581.06
462.307	14581.06
462.413	14581.06
462.519	14581.06
462.626	14581.06
462.732	14581.06
462.838	14581.06
462.945	14581.06
463.051	14581.06
463.157	14581.06
463.264	14581.06
463.37	14581.06
463.476	14581.06
463.583	14581.06
463.689	14581.06
463.795	14581.06
463.901	14581.06
464.008	14581.06
464.114	14581.06
464.22	14581.06
464.326	14581.06
464.433	14581.06
464.539	14581.06
464.645	14581.06
464.751	14581.06
464.857	14581.06
464.963	14581.06
465.07	14581.06
465.176	14581.06
465.282	14430.06
465.388	14116.06
465.494	13506.06
465.6	13334.06
465.706	12991.06
465.812	12999.06
465.918	12953.06
466.024	12878.06
466.131	12512.06
466.237	12105.06
466.343	11992.06
466.449	11700.06
466.555	11619.06
466.661	11376.06
466.767	11456.06
466.873	11266.06
466.979	11497.06
467.085	11214.06
467.191	11347.06
467.296	11223.06
467.402	11319.06
467.508	11091.06
467.614	11186.06
467.72	10824.06
467.826	10584.06
467.932	10536.06
468.038	10379.06
468.144	10482.06
468.25	10172.06
468.355	10298.06
468.461	10316.06
468.567	10117.06
468.673	10073.06
468.779	10096.06
468.885	10052.06
468.99	10153.06
469.096	10235.06
469.202	10321.06
469.308	10301.06
469.413	10399.06
469.519	10523.06
469.625	10487.06
469.731	10667.06
469.836	10647.06
469.942	11008.06
470.048	10891.06
470.153	10942.06
470.259	10858.06
470.365	10979.06
470.47	10935.06
470.576	10704.06
470.682	10492.06
470.787	10540.06
470.893	10171.06
470.999	10155.06
471.104	10028.06
471.21	9606.06
471.315	9423.06
471.421	9372.06
471.527	9593.06
471.632	9500.06
471.738	9300.06
471.843	9172.06
471.949	9176.06
472.054	8979.06
472.16	8873.06
472.265	8929.06
472.371	8741.06
472.476	8747.06
472.582	8849.06
472.687	8646.06
472.793	8463.06
472.898	8519.06
473.003	8533.06
473.109	8336.06
473.214	8214.06
473.32	8308.06
473.425	8320.06
473.53	8359.06
473.636	8333.06
473.741	8320.06
473.847	8276.06
473.952	8407.06
474.057	8358.06
474.163	8330.06
474.268	8346.06
474.373	8380.06
474.478	8178.06
474.584	8270.06
474.689	8306.06
474.794	8209.06
474.9	8622.06
475.005	8302.06
475.11	8493.06
475.215	8331.06
475.321	8372.06
475.426	8587.06
475.531	8506.06
475.636	8354.06
475.741	8385.06
475.846	8603.06
475.952	8682.06
476.057	8511.06
476.162	8658.06
476.267	8688.06
476.372	8927.06
476.477	8573.06
476.582	8768.06
476.687	8736.06
476.793	8767.06
476.898	8829.06
477.003	8858.06
477.108	8942.06
477.213	8861.06
477.318	9070.06
477.423	9271.06
477.528	9438.06
477.633	9588.06
477.738	9765.06
477.843	9567.06
477.948	9831.06
478.053	9958.06
478.158	9932.06
478.263	9989.06
478.368	10211.06
478.473	10244.06
478.578	10292.06
478.682	10408.06
478.787	10560.06
478.892	10411.06
478.997	10587.06
479.102	10445.06
479.207	10377.06
479.312	10563.06
479.417	10608.06
479.521	10590.06
479.626	10680.06
479.731	10758.06
479.836	10890.06
479.941	11299.06
480.045	11383.06
480.15	11693.06
480.255	11682.06
480.36	11815.06
480.465	11669.06
480.569	11688.06
480.674	11294.06
480.779	10970.06
480.883	10974.06
480.988	10952.06
481.093	10739.06
481.197	10719.06
481.302	10708.06
481.407	10712.06
481.511	12743.06
481.616	10882.06
481.721	10767.06
481.825	11030.06
481.93	10547.06
482.035	10694.06
482.139	10813.06
482.244	10699.06
482.348	10941.06
482.453	11026.06
482.557	10931.06
482.662	10962.06
482.767	11099.06
482.871	11199.06
482.976	11152.06
483.08	11337.06
483.185	11543.06
483.289	11538.06
483.394	11540.06
483.498	11754.06
483.603	11639.06
483.707	11746.06
483.811	11865.06
483.916	12264.06
484.02	12028.06
484.125	12313.06
484.229	12360.06
484.333	12513.06
484.438	12480.06
484.542	12758.06
484.647	12779.06
484.751	12883.06
484.855	13062.06
484.96	13100.06
485.064	13262.06
485.168	13261.06
485.273	13286.06
485.377	13435.06
485.481	13692.06
485.585	13812.06
485.69	13767.06
485.794	13770.06
485.898	13781.06
486.002	13808.06
486.107	13774.06
486.211	13693.06
486.315	13847.06
486.419	13859.06
486.524	13810.06
486.628	13868.06
486.732	13756.06
486.836	13769.06
486.94	14042.06
487.044	13937.06
487.148	13909.06
487.253	13946.06
487.357	13859.06
487.461	13943.06
487.565	13654.06
487.669	13728.06
487.773	13746.06
487.877	13872.06
487.981	13856.06
488.085	13636.06
488.189	13729.06
488.293	13921.06
488.397	14151.06
488.501	13717.06
488.605	13742.06
488.709	13576.06
488.813	13685.06
488.917	13672.06
489.021	13662.06
489.125	13919.06
489.229	13507.06
489.333	14018.06
489.437	13799.06
489.541	14025.06
489.645	13964.06
489.749	13911.06
489.853	13942.06
489.956	13795.06
490.06	13891.06
490.164	13770.06
490.268	13745.06
490.372	13869.06
490.476	13767.06
490.579	13855.06
490.683	14581.06
490.787	14001.06
490.891	13664.06
490.995	13822.06
491.098	13761.06
491.202	13767.06
491.306	13849.06
491.41	13635.06
491.513	13589.06
491.617	13717.06
491.721	13948.06
491.824	13697.06
491.928	13649.06
492.032	13913.06
492.136	13780.06
492.239	13819.06
492.343	13891.06
492.446	14310.06
492.55	13834.06
492.654	13602.06
492.757	13637.06
492.861	13870.06
492.965	13754.06
493.068	13802.06
493.172	13796.06
493.275	13919.06
493.379	13796.06
493.482	13863.06
493.586	13992.06
493.689	14177.06
493.793	13879.06
493.896	14051.06
494	14043.06
494.103	14256.06
494.207	14355.06
494.31	14411.06
494.414	14004.06
494.517	13890.06
494.621	13712.06
494.724	13707.06
494.828	13579.06
494.931	13592.06
495.034	13630.06
495.138	13752.06
495.241	13480.06
495.345	14385.06
495.448	13548.06
495.551	13490.06
495.655	13443.06
495.758	13501.06
495.861	13447.06
495.965	13366.06
496.068	13564.06
496.171	13569.06
496.274	13506.06
496.378	13718.06
496.481	13662.06
496.584	13631.06
496.687	13797.06
496.791	13697.06
496.894	14021.06
496.997	14025.06
497.1	14005.06
497.204	14106.06
497.307	14172.06
497.41	14581.06
497.513	14581.06
497.616	14581.06
497.719	14581.06
497.823	14581.06
497.926	14581.06
498.029	14581.06
498.132	14581.06
498.235	14581.06
498.338	14581.06
498.441	14581.06
498.544	14581.06
498.647	14581.06
498.75	14581.06
498.853	14581.06
498.956	14581.06
499.059	14581.06
499.163	14581.06
499.266	14581.06
499.369	14581.06
499.471	14581.06
499.574	14581.06
499.677	14581.06
499.78	14581.06
499.883	14581.06
499.986	14581.06
500.089	14581.06
500.192	14581.06
500.295	14581.06
500.398	14581.06
500.501	14581.06
500.604	14581.06
500.707	14581.06
500.809	14581.06
500.912	14581.06
501.015	14581.06
501.118	14581.06
501.221	14581.06
501.324	14581.06
501.426	14581.06
501.529	14581.06
501.632	14581.06
501.735	14581.06
501.837	14581.06
501.94	14581.06
502.043	14581.06
502.146	14581.06
502.248	14581.06
502.351	14581.06
502.454	14581.06
502.557	14581.06
502.659	14581.06
502.762	14064.06
502.865	13756.06
502.967	13437.06
503.07	13182.06
503.173	12967.06
503.275	12905.06
503.378	12883.06
503.48	12546.06
503.583	12589.06
503.686	12539.06
503.788	12737.06
503.891	12495.06
503.993	12655.06
504.096	12512.06
504.198	12721.06
504.301	12780.06
504.403	12946.06
504.506	12651.06
504.608	12503.06
504.711	11905.06
504.813	11445.06
504.916	11302.06
505.018	10988.06
505.121	10715.06
505.223	10642.06
505.326	10420.06
505.428	10427.06
505.531	10169.06
505.633	10152.06
505.735	9972.06
505.838	9736.06
505.94	9712.06
506.042	9701.06
506.145	9492.06
506.247	9685.06
506.35	9466.06
506.452	9481.06
506.554	9492.06
506.656	9403.06
506.759	9300.06
506.861	9222.06
506.963	9035.06
507.066	9218.06
507.168	9168.06
507.27	9131.06
507.372	9027.06
507.475	8974.06
507.577	8940.06
507.679	8854.06
507.781	8895.06
507.883	8726.06
507.986	8553.06
508.088	8803.06
508.19	8683.06
508.292	8545.06
508.394	8726.06
508.496	8560.06
508.598	8551.06
508.701	8573.06
508.803	8554.06
508.905	8471.06
509.007	8399.06
509.109	8471.06
509.211	8536.06
509.313	8339.06
509.415	8276.06
509.517	8377.06
509.619	8353.06
509.721	8480.06
509.823	8279.06
509.925	8620.06
510.027	8337.06
510.129	8377.06
510.231	8299.06
510.333	8192.06
510.435	8244.06
510.537	8304.06
510.639	8315.06
510.741	8277.06
510.843	8172.06
510.945	8176.06
511.047	8308.06
511.148	8317.06
511.25	8200.06
511.352	8387.06
511.454	8180.06
511.556	8384.06
511.658	8188.06
511.76	8275.06
511.861	8502.06
511.963	8198.06
512.065	8286.06
512.167	8140.06
512.268	8559.06
512.37	8320.06
512.472	8373.06
512.574	8268.06
512.676	8340.06
512.777	8313.06
512.879	8279.06
512.981	8376.06
513.082	8448.06
513.184	8354.06
513.286	8849.06
513.387	8621.06
513.489	8728.06
513.591	8500.06
513.692	8571.06
513.794	8517.06
513.896	8418.06
513.997	8480.06
514.099	8517.06
514.2	8715.06
514.302	8672.06
514.404	8817.06
514.505	8669.06
514.607	8923.06
514.708	8787.06
514.81	8963.06
514.911	8915.06
515.013	9206.06
515.114	9044.06
515.216	8955.06
515.317	9316.06
515.419	9166.06
515.52	9370.06
515.622	9262.06
515.723	9618.06
515.825	9901.06
515.926	9732.06
516.027	9930.06
516.129	10076.06
516.23	10185.06
516.332	10465.06
516.433	10632.06
516.534	10754.06
516.636	11025.06
516.737	11194.06
516.838	12728.06
516.94	11927.06
517.041	12292.06
517.142	12634.06
517.244	12779.06
517.345	13088.06
517.446	13122.06
517.547	13311.06
517.649	13265.06
517.75	13322.06
517.851	13112.06
517.952	13330.06
518.054	12805.06
518.155	12740.06
518.256	12307.06
518.357	12308.06
518.458	11691.06
518.56	11678.06
518.661	11429.06
518.762	11138.06
518.863	11182.06
518.964	10982.06
519.065	10730.06
519.166	10589.06
519.268	10363.06
519.369	10734.06
519.47	10247.06
519.571	10261.06
519.672	10240.06
519.773	9903.06
519.874	10021.06
519.975	10147.06
520.076	9937.06
520.177	9945.06
520.278	9936.06
520.379	9984.06
520.48	9719.06
520.581	9830.06
520.682	9855.06
520.783	9775.06
520.884	9808.06
520.985	9895.06
521.086	9614.06
521.187	9652.06
521.288	9571.06
521.389	9542.06
521.489	9431.06
521.59	9500.06
521.691	9560.06
521.792	9441.06
521.893	9662.06
521.994	9568.06
522.095	9491.06
522.195	9648.06
522.296	9711.06
522.397	9464.06
522.498	9467.06
522.599	9526.06
522.699	9485.06
522.8	9377.06
522.901	9598.06
523.002	9390.06
523.102	9759.06
523.203	9585.06
523.304	9612.06
523.405	9395.06
523.505	9421.06
523.606	9547.06
523.707	9496.06
523.807	9387.06
523.908	9537.06
524.009	9635.06
524.109	9530.06
524.21	9508.06
524.31	9489.06
524.411	9681.06
524.512	9658.06
524.612	9501.06
524.713	9745.06
524.813	9402.06
524.914	9817.06
525.014	14581.06
525.115	9902.06
525.216	9446.06
525.316	9528.06
525.417	9563.06
525.517	9457.06
525.618	9402.06
525.718	9492.06
525.819	9566.06
525.919	9668.06
526.019	9569.06
526.12	9496.06
526.22	9478.06
526.321	9418.06
526.421	9416.06
526.522	9472.06
526.622	9356.06
526.722	9415.06
526.823	9659.06
526.923	9529.06
527.023	9609.06
527.124	9563.06
527.224	9716.06
527.324	9451.06
527.425	9482.06
527.525	9481.06
527.625	9482.06
527.726	9437.06
527.826	9616.06
527.926	9559.06
528.026	9559.06
528.127	9489.06
528.227	9533.06
528.327	9556.06
528.427	9438.06
528.528	9526.06
528.628	9476.06
528.728	9471.06
528.828	9653.06
528.928	9498.06
529.029	9346.06
529.129	9580.06
529.229	9528.06
529.329	9392.06
529.429	9537.06
529.529	9603.06
529.629	9460.06
529.729	9470.06
529.829	9597.06
529.93	9218.06
530.03	9410.06
530.13	9413.06
530.23	9437.06
530.33	9419.06
530.43	9421.06
530.53	9383.06
530.63	9199.06
530.73	9324.06
530.83	9304.06
530.93	9307.06
531.03	9388.06
531.13	9470.06
531.23	9293.06
531.33	9303.06
531.429	9450.06
531.529	9489.06
531.629	9248.06
531.729	9278.06
531.829	9288.06
531.929	9283.06
532.029	9291.06
532.129	9150.06
532.229	9320.06
532.328	9214.06
532.428	9115.06
532.528	9047.06
532.628	9111.06
532.728	9179.06
532.827	8835.06
532.927	9002.06
533.027	8923.06
533.127	9120.06
533.227	8991.06
533.326	8942.06
533.426	8840.06
533.526	9044.06
533.625	8987.06
533.725	9146.06
533.825	8839.06
533.924	8761.06
534.024	8723.06
534.124	8644.06
534.223	8709.06
534.323	9208.06
534.423	8604.06
534.522	8541.06
534.622	8479.06
534.722	8515.06
534.821	8504.06
534.921	8416.06
