Data from 35g_HRC06701__32__459.txt Node

Date: Thu Apr 18 02:32:04 CDT 2024
User: Estudiantes 2
Spectrometer: HR+C0670
Trigger mode: 4
Integration Time (sec): 1.000000E0
Scans to average: 1
Electric dark correction enabled: true
Nonlinearity correction enabled: false
Boxcar width: 0
XAxis mode: Wavelengths
Number of Pixels in Spectrum: 2048
>>>>>Begin Spectral Data<<<<<
407.81	-113.56
407.921	-113.56
408.032	-113.56
408.143	-152.56
408.254	-158.56
408.365	54.44
408.476	256.44
408.587	-21.56
408.699	1.44
408.81	-9.56
408.921	-58.56
409.032	-47.56
409.143	72.44
409.254	14.44
409.365	75.44
409.476	-3.56
409.587	20.44
409.698	70.44
409.809	132.44
409.92	-41.56
410.031	-27.56
410.142	76.44
410.253	41.44
410.364	25.44
410.475	-38.56
410.585	33.44
410.696	4.44
410.807	3.44
410.918	40.44
411.029	72.44
411.14	18.44
411.251	47.44
411.362	80.44
411.472	47.44
411.583	70.44
411.694	105.44
411.805	-12.56
411.916	-1.56
412.026	127.44
412.137	31.44
412.248	48.44
412.359	49.44
412.47	-28.56
412.58	-29.56
412.691	91.44
412.802	24.44
412.912	2.44
413.023	46.44
413.134	49.44
413.245	104.44
413.355	15.44
413.466	66.44
413.577	-8.56
413.687	115.44
413.798	21.44
413.909	55.44
414.019	15.44
414.13	84.44
414.24	-21.56
414.351	73.44
414.462	205.44
414.572	94.44
414.683	65.44
414.793	-6.56
414.904	414.44
415.014	39.44
415.125	-6.56
415.235	129.44
415.346	123.44
415.456	167.44
415.567	86.44
415.677	54.44
415.788	68.44
415.898	8.44
416.009	32.44
416.119	87.44
416.23	1.44
416.34	-0.56
416.45	39.44
416.561	853.44
416.671	233.44
416.782	-51.56
416.892	22.44
417.002	87.44
417.113	65.44
417.223	28.44
417.333	43.44
417.444	50.44
417.554	52.44
417.664	63.44
417.775	0.44
417.885	31.44
417.995	9.44
418.106	200.44
418.216	50.44
418.326	70.44
418.436	42.44
418.547	6.44
418.657	-31.56
418.767	101.44
418.877	44.44
418.987	-23.56
419.098	27.44
419.208	76.44
419.318	86.44
419.428	70.44
419.538	41.44
419.648	46.44
419.759	29.44
419.869	132.44
419.979	10.44
420.089	27.44
420.199	-4.56
420.309	95.44
420.419	96.44
420.529	34.44
420.639	620.44
420.749	133.44
420.859	77.44
420.969	110.44
421.079	273.44
421.189	150.44
421.299	151.44
421.409	16.44
421.519	102.44
421.629	135.44
421.739	63.44
421.849	-8.56
421.959	-52.56
422.069	118.44
422.179	-1.56
422.289	-17.56
422.399	47.44
422.509	82.44
422.619	2720.44
422.729	341.44
422.838	-22.56
422.948	25.44
423.058	-17.56
423.168	48.44
423.278	1.44
423.388	46.44
423.498	135.44
423.607	22.44
423.717	320.44
423.827	336.44
423.937	37.44
424.046	112.44
424.156	142.44
424.266	30.44
424.376	169.44
424.485	199.44
424.595	60.44
424.705	-11.56
424.815	13.44
424.924	477.44
425.034	119.44
425.144	-31.56
425.253	75.44
425.363	75.44
425.473	72.44
425.582	9.44
425.692	-1.56
425.801	-33.56
425.911	150.44
426.021	129.44
426.13	117.44
426.24	260.44
426.349	151.44
426.459	64.44
426.568	-21.56
426.678	180.44
426.787	22.44
426.897	0.44
427.006	40.44
427.116	78.44
427.225	16.44
427.335	124.44
427.444	33.44
427.554	51.44
427.663	22.44
427.773	34.44
427.882	74.44
427.992	9.44
428.101	30.44
428.21	5.44
428.32	19.44
428.429	-48.56
428.539	314.44
428.648	17.44
428.757	110.44
428.867	101.44
428.976	143.44
429.085	41.44
429.195	64.44
429.304	28.44
429.413	106.44
429.523	118.44
429.632	97.44
429.741	67.44
429.85	38.44
429.96	63.44
430.069	23.44
430.178	34.44
430.287	377.44
430.397	44.44
430.506	17.44
430.615	79.44
430.724	34.44
430.833	58.44
430.943	103.44
431.052	30.44
431.161	-15.56
431.27	70.44
431.379	4.44
431.488	132.44
431.597	106.44
431.706	126.44
431.816	29.44
431.925	15.44
432.034	59.44
432.143	89.44
432.252	31.44
432.361	193.44
432.47	54.44
432.579	46.44
432.688	39.44
432.797	98.44
432.906	-15.56
433.015	58.44
433.124	459.44
433.233	94.44
433.342	100.44
433.451	100.44
433.56	14.44
433.669	16.44
433.778	56.44
433.886	66.44
433.995	46.44
434.104	163.44
434.213	62.44
434.322	-1.56
434.431	107.44
434.54	67.44
434.649	161.44
434.757	59.44
434.866	78.44
434.975	116.44
435.084	157.44
435.193	161.44
435.301	325.44
435.41	464.44
435.519	521.44
435.628	105.44
435.737	48.44
435.845	22.44
435.954	32.44
436.063	40.44
436.171	44.44
436.28	90.44
436.389	148.44
436.498	58.44
436.606	107.44
436.715	208.44
436.823	47.44
436.932	42.44
437.041	90.44
437.149	105.44
437.258	17.44
437.367	64.44
437.475	14.44
437.584	282.44
437.692	89.44
437.801	1619.44
437.91	223.44
438.018	89.44
438.127	8.44
438.235	81.44
438.344	41.44
438.452	94.44
438.561	16.44
438.669	47.44
438.778	38.44
438.886	14.44
438.995	15.44
439.103	52.44
439.212	12.44
439.32	1.44
439.428	28.44
439.537	74.44
439.645	101.44
439.754	98.44
439.862	56.44
439.97	48.44
440.079	51.44
440.187	35.44
440.295	140.44
440.404	32.44
440.512	79.44
440.62	83.44
440.729	80.44
440.837	130.44
440.945	692.44
441.054	103.44
441.162	38.44
441.27	130.44
441.378	25.44
441.487	19.44
441.595	422.44
441.703	140.44
441.811	78.44
441.92	78.44
442.028	-7.56
442.136	57.44
442.244	127.44
442.352	64.44
442.461	-34.56
442.569	-21.56
442.677	43.44
442.785	58.44
442.893	39.44
443.001	20.44
443.109	-41.56
443.217	-23.56
443.325	4.44
443.434	536.44
443.542	278.44
443.65	67.44
443.758	178.44
443.866	3.44
443.974	317.44
444.082	139.44
444.19	18.44
444.298	75.44
444.406	147.44
444.514	16.44
444.622	83.44
444.73	130.44
444.838	42.44
444.946	95.44
445.054	69.44
445.161	24.44
445.269	1.44
445.377	95.44
445.485	119.44
445.593	56.44
445.701	277.44
445.809	233.44
445.917	74.44
446.025	17.44
446.132	175.44
446.24	118.44
446.348	38.44
446.456	6.44
446.564	21.44
446.671	69.44
446.779	41.44
446.887	38.44
446.995	57.44
447.102	82.44
447.21	158.44
447.318	65.44
447.426	33.44
447.533	343.44
447.641	1255.44
447.749	195.44
447.856	99.44
447.964	81.44
448.072	164.44
448.179	35.44
448.287	92.44
448.395	130.44
448.502	42.44
448.61	96.44
448.718	6.44
448.825	115.44
448.933	82.44
449.04	10.44
449.148	81.44
449.256	99.44
449.363	76.44
449.471	68.44
449.578	85.44
449.686	52.44
449.793	110.44
449.901	49.44
450.008	99.44
450.116	85.44
450.223	36.44
450.331	131.44
450.438	26.44
450.546	63.44
450.653	110.44
450.76	98.44
450.868	75.44
450.975	268.44
451.083	100.44
451.19	130.44
451.297	101.44
451.405	155.44
451.512	43.44
451.619	208.44
451.727	220.44
451.834	41.44
451.941	37.44
452.049	28.44
452.156	83.44
452.263	57.44
452.371	33.44
452.478	112.44
452.585	190.44
452.692	24.44
452.8	129.44
452.907	197.44
453.014	131.44
453.121	88.44
453.229	95.44
453.336	126.44
453.443	204.44
453.55	23.44
453.657	63.44
453.765	132.44
453.872	109.44
453.979	121.44
454.086	72.44
454.193	142.44
454.3	78.44
454.407	202.44
454.514	228.44
454.621	69.44
454.729	30.44
454.836	107.44
454.943	108.44
455.05	105.44
455.157	125.44
455.264	88.44
455.371	98.44
455.478	81.44
455.585	368.44
455.692	132.44
455.799	221.44
455.906	93.44
456.013	60.44
456.12	46.44
456.227	123.44
456.334	117.44
456.44	151.44
456.547	120.44
456.654	71.44
456.761	41.44
456.868	181.44
456.975	142.44
457.082	39.44
457.189	25.44
457.296	114.44
457.402	42.44
457.509	17.44
457.616	99.44
457.723	260.44
457.83	96.44
457.936	41.44
458.043	373.44
458.15	83.44
458.257	164.44
458.363	131.44
458.47	40.44
458.577	139.44
458.684	90.44
458.79	111.44
458.897	109.44
459.004	142.44
459.11	82.44
459.217	59.44
459.324	143.44
459.43	230.44
459.537	322.44
459.644	101.44
459.75	89.44
459.857	419.44
459.964	131.44
460.07	201.44
460.177	139.44
460.283	149.44
460.39	287.44
460.496	163.44
460.603	156.44
460.71	141.44
460.816	125.44
460.923	71.44
461.029	153.44
461.136	146.44
461.242	85.44
461.349	129.44
461.455	119.44
461.562	401.44
461.668	211.44
461.774	114.44
461.881	204.44
461.987	146.44
462.094	123.44
462.2	171.44
462.307	161.44
462.413	97.44
462.519	111.44
462.626	139.44
462.732	112.44
462.838	152.44
462.945	166.44
463.051	126.44
463.157	85.44
463.264	123.44
463.37	163.44
463.476	163.44
463.583	175.44
463.689	68.44
463.795	86.44
463.901	206.44
464.008	248.44
464.114	89.44
464.22	122.44
464.326	138.44
464.433	89.44
464.539	108.44
464.645	99.44
464.751	258.44
464.857	161.44
464.963	82.44
465.07	155.44
465.176	149.44
465.282	178.44
465.388	230.44
465.494	81.44
465.6	131.44
465.706	42.44
465.812	13.44
465.918	161.44
466.024	108.44
466.131	139.44
466.237	63.44
466.343	79.44
466.449	64.44
466.555	63.44
466.661	104.44
466.767	62.44
466.873	109.44
466.979	262.44
467.085	109.44
467.191	84.44
467.296	34.44
467.402	58.44
467.508	117.44
467.614	265.44
467.72	133.44
467.826	20.44
467.932	65.44
468.038	95.44
468.144	59.44
468.25	98.44
468.355	53.44
468.461	113.44
468.567	27.44
468.673	99.44
468.779	117.44
468.885	54.44
468.99	8.44
469.096	107.44
469.202	156.44
469.308	114.44
469.413	157.44
469.519	87.44
469.625	74.44
469.731	111.44
469.836	55.44
469.942	227.44
470.048	111.44
470.153	117.44
470.259	110.44
470.365	151.44
470.47	176.44
470.576	78.44
470.682	89.44
470.787	90.44
470.893	30.44
470.999	120.44
471.104	207.44
471.21	99.44
471.315	-5.56
471.421	63.44
471.527	323.44
471.632	133.44
471.738	165.44
471.843	103.44
471.949	92.44
472.054	160.44
472.16	115.44
472.265	66.44
472.371	91.44
472.476	147.44
472.582	156.44
472.687	76.44
472.793	41.44
472.898	106.44
473.003	60.44
473.109	44.44
473.214	68.44
473.32	38.44
473.425	164.44
473.53	167.44
473.636	39.44
473.741	18.44
473.847	66.44
473.952	99.44
474.057	124.44
474.163	164.44
474.268	112.44
474.373	146.44
474.478	40.44
474.584	66.44
474.689	119.44
474.794	83.44
474.9	385.44
475.005	56.44
475.11	234.44
475.215	79.44
475.321	70.44
475.426	203.44
475.531	243.44
475.636	120.44
475.741	30.44
475.846	161.44
475.952	283.44
476.057	107.44
476.162	183.44
476.267	272.44
476.372	399.44
476.477	86.44
476.582	221.44
476.687	87.44
476.793	75.44
476.898	54.44
477.003	135.44
477.108	66.44
477.213	35.44
477.318	78.44
477.423	133.44
477.528	160.44
477.633	212.44
477.738	111.44
477.843	39.44
477.948	122.44
478.053	77.44
478.158	57.44
478.263	126.44
478.368	103.44
478.473	138.44
478.578	128.44
478.682	77.44
478.787	104.44
478.892	112.44
478.997	218.44
479.102	69.44
479.207	64.44
479.312	223.44
479.417	121.44
479.521	82.44
479.626	159.44
479.731	161.44
479.836	72.44
479.941	218.44
480.045	216.44
480.15	119.44
480.255	79.44
480.36	81.44
480.465	135.44
480.569	231.44
480.674	134.44
480.779	45.44
480.883	25.44
480.988	112.44
481.093	145.44
481.197	102.44
481.302	120.44
481.407	215.44
481.511	1376.44
481.616	199.44
481.721	164.44
481.825	257.44
481.93	85.44
482.035	91.44
482.139	162.44
482.244	143.44
482.348	95.44
482.453	131.44
482.557	143.44
482.662	130.44
482.767	90.44
482.871	68.44
482.976	98.44
483.08	183.44
483.185	288.44
483.289	80.44
483.394	84.44
483.498	147.44
483.603	73.44
483.707	99.44
483.811	182.44
483.916	185.44
484.02	131.44
484.125	235.44
484.229	116.44
484.333	185.44
484.438	132.44
484.542	62.44
484.647	38.44
484.751	97.44
484.855	121.44
484.96	75.44
485.064	71.44
485.168	144.44
485.273	53.44
485.377	95.44
485.481	339.44
485.585	85.44
485.69	74.44
485.794	176.44
485.898	119.44
486.002	72.44
486.107	114.44
486.211	138.44
486.315	120.44
486.419	199.44
486.524	162.44
486.628	74.44
486.732	59.44
486.836	159.44
486.94	176.44
487.044	138.44
487.148	143.44
487.253	81.44
487.357	110.44
487.461	322.44
487.565	144.44
487.669	95.44
487.773	102.44
487.877	214.44
487.981	158.44
488.085	183.44
488.189	188.44
488.293	276.44
488.397	589.44
488.501	237.44
488.605	90.44
488.709	104.44
488.813	124.44
488.917	87.44
489.021	131.44
489.125	374.44
489.229	193.44
489.333	247.44
489.437	193.44
489.541	172.44
489.645	122.44
489.749	148.44
489.853	237.44
489.956	113.44
490.06	163.44
490.164	137.44
490.268	100.44
490.372	148.44
490.476	115.44
490.579	152.44
490.683	776.44
490.787	262.44
490.891	192.44
490.995	143.44
491.098	159.44
491.202	216.44
491.306	155.44
491.41	176.44
491.513	144.44
491.617	178.44
491.721	306.44
491.824	370.44
491.928	207.44
492.032	384.44
492.136	167.44
492.239	140.44
492.343	129.44
492.446	515.44
492.55	248.44
492.654	85.44
492.757	92.44
492.861	234.44
492.965	147.44
493.068	161.44
493.172	185.44
493.275	169.44
493.379	120.44
493.482	239.44
493.586	295.44
493.689	342.44
493.793	144.44
493.896	248.44
494	219.44
494.103	233.44
494.207	470.44
494.31	562.44
494.414	216.44
494.517	179.44
494.621	178.44
494.724	174.44
494.828	145.44
494.931	142.44
495.034	81.44
495.138	280.44
495.241	166.44
495.345	956.44
495.448	279.44
495.551	184.44
495.655	176.44
495.758	123.44
495.861	131.44
495.965	163.44
496.068	166.44
496.171	215.44
496.274	150.44
496.378	110.44
496.481	177.44
496.584	164.44
496.687	174.44
496.791	184.44
496.894	232.44
496.997	154.44
497.1	146.44
497.204	173.44
497.307	142.44
497.41	291.44
497.513	325.44
497.616	168.44
497.719	96.44
497.823	89.44
497.926	137.44
498.029	152.44
498.132	131.44
498.235	117.44
498.338	194.44
498.441	220.44
498.544	153.44
498.647	188.44
498.75	261.44
498.853	327.44
498.956	227.44
499.059	351.44
499.163	156.44
499.266	193.44
499.369	151.44
499.471	168.44
499.574	275.44
499.677	211.44
499.78	194.44
499.883	183.44
499.986	242.44
500.089	152.44
500.192	190.44
500.295	237.44
500.398	165.44
500.501	228.44
500.604	175.44
500.707	164.44
500.809	140.44
500.912	335.44
501.015	330.44
501.118	182.44
501.221	289.44
501.324	255.44
501.426	220.44
501.529	194.44
501.632	223.44
501.735	110.44
501.837	102.44
501.94	159.44
502.043	140.44
502.146	174.44
502.248	208.44
502.351	182.44
502.454	164.44
502.557	101.44
502.659	194.44
502.762	69.44
502.865	114.44
502.967	162.44
503.07	138.44
503.173	155.44
503.275	185.44
503.378	166.44
503.48	113.44
503.583	237.44
503.686	219.44
503.788	370.44
503.891	172.44
503.993	414.44
504.096	133.44
504.198	146.44
504.301	121.44
504.403	116.44
504.506	124.44
504.608	154.44
504.711	142.44
504.813	198.44
504.916	183.44
505.018	162.44
505.121	117.44
505.223	194.44
505.326	176.44
505.428	228.44
505.531	169.44
505.633	180.44
505.735	98.44
505.838	107.44
505.94	167.44
506.042	80.44
506.145	56.44
506.247	206.44
506.35	141.44
506.452	181.44
506.554	172.44
506.656	196.44
506.759	82.44
506.861	167.44
506.963	173.44
507.066	167.44
507.168	226.44
507.27	160.44
507.372	101.44
507.475	97.44
507.577	136.44
507.679	155.44
507.781	55.44
507.883	129.44
507.986	105.44
508.088	118.44
508.19	143.44
508.292	217.44
508.394	129.44
508.496	44.44
508.598	122.44
508.701	84.44
508.803	118.44
508.905	74.44
509.007	136.44
509.109	152.44
509.211	201.44
509.313	129.44
509.415	65.44
509.517	136.44
509.619	121.44
509.721	160.44
509.823	93.44
509.925	247.44
510.027	129.44
510.129	137.44
510.231	147.44
510.333	138.44
510.435	67.44
510.537	174.44
510.639	243.44
510.741	146.44
510.843	188.44
510.945	151.44
511.047	168.44
511.148	167.44
511.25	89.44
511.352	148.44
511.454	34.44
511.556	191.44
511.658	160.44
511.76	190.44
511.861	263.44
511.963	114.44
512.065	87.44
512.167	92.44
512.268	338.44
512.37	160.44
512.472	101.44
512.574	218.44
512.676	233.44
512.777	93.44
512.879	72.44
512.981	104.44
513.082	123.44
513.184	120.44
513.286	584.44
513.387	214.44
513.489	234.44
513.591	218.44
513.692	222.44
513.794	157.44
513.896	100.44
513.997	109.44
514.099	48.44
514.2	144.44
514.302	154.44
514.404	96.44
514.505	61.44
514.607	198.44
514.708	115.44
514.81	168.44
514.911	219.44
515.013	201.44
515.114	177.44
515.216	113.44
515.317	152.44
515.419	100.44
515.52	153.44
515.622	155.44
515.723	139.44
515.825	217.44
515.926	178.44
516.027	96.44
516.129	86.44
516.23	165.44
516.332	158.44
516.433	84.44
516.534	203.44
516.636	113.44
516.737	72.44
516.838	1109.44
516.94	331.44
517.041	110.44
517.142	216.44
517.244	334.44
517.345	148.44
517.446	176.44
517.547	220.44
517.649	130.44
517.75	134.44
517.851	156.44
517.952	449.44
518.054	175.44
518.155	260.44
518.256	165.44
518.357	275.44
518.458	111.44
518.56	155.44
518.661	149.44
518.762	134.44
518.863	270.44
518.964	248.44
519.065	96.44
519.166	123.44
519.268	126.44
519.369	374.44
519.47	166.44
519.571	252.44
519.672	110.44
519.773	161.44
519.874	231.44
519.975	182.44
520.076	144.44
520.177	283.44
520.278	170.44
520.379	147.44
520.48	97.44
520.581	111.44
520.682	95.44
520.783	139.44
520.884	264.44
520.985	205.44
521.086	143.44
521.187	258.44
521.288	121.44
521.389	196.44
521.489	186.44
521.59	83.44
521.691	244.44
521.792	115.44
521.893	305.44
521.994	330.44
522.095	209.44
522.195	294.44
522.296	289.44
522.397	243.44
522.498	257.44
522.599	97.44
522.699	163.44
522.8	192.44
522.901	271.44
523.002	177.44
523.102	402.44
523.203	239.44
523.304	354.44
523.405	171.44
523.505	208.44
523.606	199.44
523.707	230.44
523.807	266.44
523.908	203.44
524.009	301.44
524.109	242.44
524.21	203.44
524.31	262.44
524.411	322.44
524.512	347.44
524.612	211.44
524.713	349.44
524.813	278.44
524.914	461.44
525.014	6147.44
525.115	796.44
525.216	171.44
525.316	191.44
525.417	262.44
525.517	159.44
525.618	165.44
525.718	169.44
525.819	160.44
525.919	204.44
526.019	179.44
526.12	319.44
526.22	134.44
526.321	142.44
526.421	150.44
526.522	151.44
526.622	117.44
526.722	154.44
526.823	200.44
526.923	201.44
527.023	284.44
527.124	232.44
527.224	261.44
527.324	165.44
527.425	238.44
527.525	54.44
527.625	161.44
527.726	232.44
527.826	264.44
527.926	166.44
528.026	222.44
528.127	168.44
528.227	153.44
528.327	291.44
528.427	225.44
528.528	214.44
528.628	247.44
528.728	270.44
528.828	257.44
528.928	303.44
529.029	228.44
529.129	181.44
529.229	200.44
529.329	253.44
529.429	294.44
529.529	308.44
529.629	260.44
529.729	223.44
529.829	388.44
529.93	197.44
530.03	311.44
530.13	206.44
530.23	235.44
530.33	345.44
530.43	167.44
530.53	214.44
530.63	199.44
530.73	163.44
530.83	85.44
530.93	126.44
531.03	147.44
531.13	251.44
531.23	133.44
531.33	232.44
531.429	273.44
531.529	361.44
531.629	239.44
531.729	113.44
531.829	86.44
531.929	186.44
532.029	237.44
532.129	191.44
532.229	217.44
532.328	225.44
532.428	166.44
532.528	146.44
532.628	172.44
532.728	176.44
532.827	158.44
532.927	265.44
533.027	182.44
533.127	318.44
533.227	263.44
533.326	232.44
533.426	115.44
533.526	323.44
533.625	377.44
533.725	458.44
533.825	254.44
533.924	229.44
534.024	82.44
534.124	94.44
534.223	236.44
534.323	566.44
534.423	242.44
534.522	255.44
534.622	117.44
534.722	163.44
534.821	210.44
534.921	186.44
535.02	105.44
535.12	268.44
535.219	361.44
535.319	279.44
535.419	251.44
535.518	202.44
535.618	203.44
535.717	273.44
535.817	151.44
535.916	116.44
536.016	239.44
536.115	148.44
536.215	215.44
536.314	111.44
536.413	107.44
536.513	168.44
536.612	118.44
536.712	79.44
536.811	167.44
536.91	82.44
537.01	88.44
537.109	185.44
537.209	183.44
537.308	142.44
537.407	155.44
537.507	172.44
537.606	132.44
537.705	182.44
537.805	207.44
537.904	71.44
538.003	178.44
538.102	344.44
538.202	174.44
538.301	246.44
538.4	255.44
538.499	208.44
538.599	241.44
538.698	409.44
538.797	219.44
538.896	234.44
538.995	199.44
539.095	203.44
539.194	375.44
539.293	190.44
539.392	229.44
539.491	214.44
539.59	169.44
539.689	308.44
539.789	277.44
539.888	88.44
539.987	70.44
540.086	218.44
540.185	196.44
540.284	233.44
540.383	234.44
540.482	128.44
540.581	160.44
540.68	195.44
540.779	253.44
540.878	197.44
540.977	250.44
541.076	235.44
541.175	239.44
541.274	449.44
541.373	305.44
541.472	239.44
541.571	158.44
541.67	1556.44
541.769	374.44
541.868	206.44
541.966	323.44
542.065	219.44
542.164	223.44
542.263	202.44
542.362	265.44
542.461	275.44
542.56	275.44
542.658	331.44
542.757	191.44
542.856	155.44
542.955	171.44
543.054	100.44
543.152	280.44
543.251	265.44
543.35	377.44
543.449	240.44
543.547	218.44
543.646	222.44
543.745	242.44
543.843	263.44
543.942	279.44
544.041	197.44
544.14	279.44
544.238	254.44
544.337	380.44
544.436	289.44
544.534	385.44
544.633	271.44
544.731	247.44
544.83	310.44
544.929	251.44
545.027	204.44
545.126	195.44
545.224	382.44
545.323	190.44
545.421	222.44
545.52	263.44
545.619	243.44
545.717	220.44
545.816	338.44
545.914	312.44
546.013	476.44
546.111	419.44
546.209	266.44
546.308	164.44
546.406	200.44
546.505	446.44
546.603	243.44
546.702	186.44
546.8	246.44
546.899	212.44
546.997	243.44
547.095	329.44
547.194	323.44
547.292	264.44
547.39	304.44
547.489	286.44
547.587	492.44
547.685	240.44
547.784	494.44
547.882	314.44
547.98	192.44
548.079	315.44
548.177	224.44
548.275	169.44
548.373	412.44
548.472	233.44
548.57	237.44
548.668	344.44
548.766	211.44
548.864	352.44
548.963	230.44
