Data from 35g_HRC06701__17__444.txt Node

Date: Thu Apr 18 02:31:49 CDT 2024
User: Estudiantes 2
Spectrometer: HR+C0670
Trigger mode: 4
Integration Time (sec): 1.000000E0
Scans to average: 1
Electric dark correction enabled: true
Nonlinearity correction enabled: false
Boxcar width: 0
XAxis mode: Wavelengths
Number of Pixels in Spectrum: 2048
>>>>>Begin Spectral Data<<<<<
407.81	-139.69
407.921	-139.69
408.032	-139.69
408.143	-92.69
408.254	-150.69
408.365	8.31
408.476	305.31
408.587	-22.69
408.699	-24.69
408.81	-47.69
408.921	-26.69
409.032	-41.69
409.143	40.31
409.254	56.31
409.365	73.31
409.476	-50.69
409.587	33.31
409.698	80.31
409.809	108.31
409.92	-28.69
410.031	-20.69
410.142	64.31
410.253	21.31
410.364	77.31
410.475	-81.69
410.585	55.31
410.696	119.31
410.807	15.31
410.918	36.31
411.029	147.31
411.14	75.31
411.251	30.31
411.362	119.31
411.472	141.31
411.583	102.31
411.694	134.31
411.805	81.31
411.916	52.31
412.026	161.31
412.137	118.31
412.248	84.31
412.359	40.31
412.47	49.31
412.58	36.31
412.691	76.31
412.802	102.31
412.912	100.31
413.023	61.31
413.134	31.31
413.245	203.31
413.355	32.31
413.466	41.31
413.577	97.31
413.687	129.31
413.798	27.31
413.909	161.31
414.019	96.31
414.13	85.31
414.24	33.31
414.351	132.31
414.462	212.31
414.572	125.31
414.683	148.31
414.793	41.31
414.904	409.31
415.014	154.31
415.125	27.31
415.235	104.31
415.346	239.31
415.456	214.31
415.567	112.31
415.677	122.31
415.788	170.31
415.898	61.31
416.009	64.31
416.119	174.31
416.23	51.31
416.34	56.31
416.45	192.31
416.561	821.31
416.671	230.31
416.782	45.31
416.892	70.31
417.002	116.31
417.113	124.31
417.223	137.31
417.333	61.31
417.444	87.31
417.554	165.31
417.664	63.31
417.775	36.31
417.885	148.31
417.995	95.31
418.106	224.31
418.216	157.31
418.326	92.31
418.436	61.31
418.547	83.31
418.657	68.31
418.767	158.31
418.877	60.31
418.987	105.31
419.098	58.31
419.208	76.31
419.318	210.31
419.428	101.31
419.538	60.31
419.648	105.31
419.759	130.31
419.869	143.31
419.979	115.31
420.089	121.31
420.199	89.31
420.309	136.31
420.419	197.31
420.529	90.31
420.639	589.31
420.749	212.31
420.859	135.31
420.969	136.31
421.079	347.31
421.189	203.31
421.299	145.31
421.409	60.31
421.519	220.31
421.629	198.31
421.739	82.31
421.849	77.31
421.959	17.31
422.069	119.31
422.179	86.31
422.289	80.31
422.399	71.31
422.509	199.31
422.619	3605.31
422.729	468.31
422.838	95.31
422.948	167.31
423.058	53.31
423.168	97.31
423.278	133.31
423.388	101.31
423.498	125.31
423.607	176.31
423.717	363.31
423.827	394.31
423.937	155.31
424.046	190.31
424.156	145.31
424.266	84.31
424.376	360.31
424.485	257.31
424.595	138.31
424.705	139.31
424.815	115.31
424.924	538.31
425.034	252.31
425.144	33.31
425.253	116.31
425.363	155.31
425.473	197.31
425.582	48.31
425.692	68.31
425.801	110.31
425.911	244.31
426.021	141.31
426.13	264.31
426.24	328.31
426.349	209.31
426.459	178.31
426.568	67.31
426.678	195.31
426.787	108.31
426.897	111.31
427.006	113.31
427.116	165.31
427.225	155.31
427.335	172.31
427.444	137.31
427.554	236.31
427.663	124.31
427.773	91.31
427.882	212.31
427.992	91.31
428.101	59.31
428.21	109.31
428.32	155.31
428.429	20.31
428.539	377.31
428.648	149.31
428.757	148.31
428.867	150.31
428.976	326.31
429.085	129.31
429.195	112.31
429.304	168.31
429.413	169.31
429.523	173.31
429.632	184.31
429.741	205.31
429.85	122.31
429.96	185.31
430.069	132.31
430.178	105.31
430.287	424.31
430.397	189.31
430.506	127.31
430.615	67.31
430.724	201.31
430.833	162.31
430.943	137.31
431.052	150.31
431.161	107.31
431.27	150.31
431.379	97.31
431.488	276.31
431.597	224.31
431.706	201.31
431.816	175.31
431.925	123.31
432.034	112.31
432.143	234.31
432.252	149.31
432.361	229.31
432.47	165.31
432.579	178.31
432.688	113.31
432.797	184.31
432.906	132.31
433.015	184.31
433.124	587.31
433.233	261.31
433.342	216.31
433.451	155.31
433.56	173.31
433.669	185.31
433.778	144.31
433.886	203.31
433.995	190.31
434.104	286.31
434.213	220.31
434.322	183.31
434.431	257.31
434.54	154.31
434.649	335.31
434.757	223.31
434.866	155.31
434.975	250.31
435.084	267.31
435.193	259.31
435.301	478.31
435.41	634.31
435.519	636.31
435.628	234.31
435.737	191.31
435.845	140.31
435.954	129.31
436.063	217.31
436.171	147.31
436.28	201.31
436.389	324.31
436.498	203.31
436.606	189.31
436.715	320.31
436.823	168.31
436.932	120.31
437.041	131.31
437.149	219.31
437.258	129.31
437.367	139.31
437.475	192.31
437.584	385.31
437.692	136.31
437.801	1738.31
437.91	358.31
438.018	112.31
438.127	118.31
438.235	260.31
438.344	139.31
438.452	149.31
438.561	139.31
438.669	90.31
438.778	106.31
438.886	183.31
438.995	81.31
439.103	99.31
439.212	137.31
439.32	109.31
439.428	69.31
439.537	155.31
439.645	245.31
439.754	198.31
439.862	108.31
439.97	192.31
440.079	98.31
440.187	63.31
440.295	277.31
440.404	112.31
440.512	148.31
440.62	204.31
440.729	227.31
440.837	208.31
440.945	813.31
441.054	255.31
441.162	112.31
441.27	225.31
441.378	173.31
441.487	125.31
441.595	477.31
441.703	323.31
441.811	224.31
441.92	167.31
442.028	124.31
442.136	215.31
442.244	197.31
442.352	184.31
442.461	153.31
442.569	98.31
442.677	88.31
442.785	234.31
442.893	126.31
443.001	81.31
443.109	100.31
443.217	135.31
443.325	68.31
443.434	688.31
443.542	434.31
443.65	128.31
443.758	287.31
443.866	181.31
443.974	444.31
444.082	219.31
444.19	199.31
444.298	136.31
444.406	241.31
444.514	208.31
444.622	248.31
444.73	235.31
444.838	224.31
444.946	276.31
445.054	128.31
445.161	153.31
445.269	179.31
445.377	172.31
445.485	192.31
445.593	225.31
445.701	311.31
445.809	235.31
445.917	215.31
446.025	112.31
446.132	245.31
446.24	260.31
446.348	234.31
446.456	112.31
446.564	105.31
446.671	228.31
446.779	156.31
446.887	108.31
446.995	216.31
447.102	211.31
447.21	223.31
447.318	196.31
447.426	97.31
447.533	400.31
447.641	1427.31
447.749	364.31
447.856	161.31
447.964	145.31
448.072	299.31
448.179	128.31
448.287	179.31
448.395	267.31
448.502	135.31
448.61	182.31
448.718	165.31
448.825	211.31
448.933	152.31
449.04	133.31
449.148	201.31
449.256	161.31
449.363	141.31
449.471	191.31
449.578	235.31
449.686	152.31
449.793	311.31
449.901	175.31
450.008	178.31
450.116	229.31
450.223	110.31
450.331	165.31
450.438	167.31
450.546	222.31
450.653	245.31
450.76	225.31
450.868	284.31
450.975	385.31
451.083	182.31
451.19	269.31
451.297	200.31
451.405	211.31
451.512	193.31
451.619	313.31
451.727	323.31
451.834	191.31
451.941	225.31
452.049	184.31
452.156	189.31
452.263	259.31
452.371	187.31
452.478	251.31
452.585	426.31
452.692	184.31
452.8	234.31
452.907	358.31
453.014	295.31
453.121	158.31
453.229	288.31
453.336	312.31
453.443	321.31
453.55	176.31
453.657	285.31
453.765	263.31
453.872	229.31
453.979	316.31
454.086	196.31
454.193	232.31
454.3	240.31
454.407	373.31
454.514	342.31
454.621	221.31
454.729	253.31
454.836	222.31
454.943	244.31
455.05	333.31
455.157	297.31
455.264	204.31
455.371	267.31
455.478	219.31
455.585	467.31
455.692	300.31
455.799	363.31
455.906	216.31
456.013	220.31
456.12	203.31
456.227	272.31
456.334	270.31
456.44	404.31
456.547	224.31
456.654	204.31
456.761	275.31
456.868	303.31
456.975	274.31
457.082	211.31
457.189	241.31
457.296	236.31
457.402	229.31
457.509	265.31
457.616	260.31
457.723	418.31
457.83	331.31
457.936	218.31
458.043	487.31
458.15	308.31
458.257	329.31
458.363	278.31
458.47	263.31
458.577	343.31
458.684	220.31
458.79	321.31
458.897	315.31
459.004	366.31
459.11	276.31
459.217	331.31
459.324	385.31
459.43	439.31
459.537	601.31
459.644	333.31
459.75	274.31
459.857	672.31
459.964	386.31
460.07	431.31
460.177	392.31
460.283	470.31
460.39	469.31
460.496	407.31
460.603	452.31
460.71	374.31
460.816	308.31
460.923	360.31
461.029	395.31
461.136	375.31
461.242	378.31
461.349	417.31
461.455	301.31
461.562	682.31
461.668	537.31
461.774	356.31
461.881	497.31
461.987	458.31
462.094	404.31
462.2	433.31
462.307	490.31
462.413	382.31
462.519	332.31
462.626	487.31
462.732	462.31
462.838	500.31
462.945	554.31
463.051	520.31
463.157	443.31
463.264	449.31
463.37	493.31
463.476	441.31
463.583	426.31
463.689	407.31
463.795	396.31
463.901	472.31
464.008	547.31
464.114	424.31
464.22	369.31
464.326	460.31
464.433	402.31
464.539	386.31
464.645	381.31
464.751	600.31
464.857	453.31
464.963	314.31
465.07	422.31
465.176	410.31
465.282	334.31
465.388	458.31
465.494	265.31
465.6	298.31
465.706	282.31
465.812	253.31
465.918	331.31
466.024	304.31
466.131	439.31
466.237	315.31
466.343	246.31
466.449	260.31
466.555	259.31
466.661	230.31
466.767	220.31
466.873	281.31
466.979	432.31
467.085	288.31
467.191	314.31
467.296	223.31
467.402	211.31
467.508	347.31
467.614	365.31
467.72	218.31
467.826	206.31
467.932	242.31
468.038	192.31
468.144	253.31
468.25	232.31
468.355	172.31
468.461	255.31
468.567	233.31
468.673	216.31
468.779	247.31
468.885	231.31
468.99	164.31
469.096	215.31
469.202	345.31
469.308	270.31
469.413	259.31
469.519	231.31
469.625	269.31
469.731	252.31
469.836	227.31
469.942	469.31
470.048	241.31
470.153	257.31
470.259	324.31
470.365	355.31
470.47	298.31
470.576	292.31
470.682	287.31
470.787	243.31
470.893	218.31
470.999	285.31
471.104	259.31
471.21	183.31
471.315	192.31
471.421	166.31
471.527	389.31
471.632	330.31
471.738	283.31
471.843	162.31
471.949	277.31
472.054	277.31
472.16	193.31
472.265	227.31
472.371	232.31
472.476	245.31
472.582	293.31
472.687	253.31
472.793	141.31
472.898	201.31
473.003	176.31
473.109	174.31
473.214	109.31
473.32	177.31
473.425	259.31
473.53	190.31
473.636	179.31
473.741	227.31
473.847	135.31
473.952	180.31
474.057	280.31
474.163	233.31
474.268	148.31
474.373	299.31
474.478	155.31
474.584	149.31
474.689	270.31
474.794	226.31
474.9	474.31
475.005	180.31
475.11	387.31
475.215	155.31
475.321	193.31
475.426	437.31
475.531	353.31
475.636	165.31
475.741	162.31
475.846	301.31
475.952	377.31
476.057	269.31
476.162	312.31
476.267	369.31
476.372	526.31
476.477	272.31
476.582	306.31
476.687	181.31
476.793	276.31
476.898	204.31
477.003	229.31
477.108	245.31
477.213	164.31
477.318	166.31
477.423	240.31
477.528	339.31
477.633	308.31
477.738	282.31
477.843	219.31
477.948	193.31
478.053	206.31
478.158	242.31
478.263	241.31
478.368	241.31
478.473	346.31
478.578	274.31
478.682	164.31
478.787	278.31
478.892	258.31
478.997	297.31
479.102	249.31
479.207	313.31
479.312	344.31
479.417	270.31
479.521	263.31
479.626	333.31
479.731	283.31
479.836	304.31
479.941	390.31
480.045	316.31
480.15	340.31
480.255	323.31
480.36	211.31
480.465	280.31
480.569	467.31
480.674	292.31
480.779	184.31
480.883	244.31
480.988	261.31
481.093	271.31
481.197	307.31
481.302	279.31
481.407	289.31
481.511	1502.31
481.616	390.31
481.721	253.31
481.825	449.31
481.93	280.31
482.035	194.31
482.139	326.31
482.244	368.31
482.348	248.31
482.453	248.31
482.557	314.31
482.662	349.31
482.767	240.31
482.871	258.31
482.976	276.31
483.08	285.31
483.185	434.31
483.289	315.31
483.394	251.31
483.498	311.31
483.603	284.31
483.707	286.31
483.811	372.31
483.916	419.31
484.02	283.31
484.125	338.31
484.229	288.31
484.333	408.31
484.438	259.31
484.542	273.31
484.647	281.31
484.751	265.31
484.855	307.31
484.96	323.31
485.064	284.31
485.168	281.31
485.273	308.31
485.377	313.31
485.481	487.31
485.585	325.31
485.69	324.31
485.794	313.31
485.898	336.31
486.002	346.31
486.107	334.31
486.211	313.31
486.315	385.31
486.419	372.31
486.524	357.31
486.628	321.31
486.732	290.31
486.836	278.31
486.94	379.31
487.044	355.31
487.148	302.31
487.253	279.31
487.357	387.31
487.461	470.31
487.565	393.31
487.669	334.31
487.773	335.31
487.877	416.31
487.981	406.31
488.085	394.31
488.189	301.31
488.293	488.31
488.397	840.31
488.501	377.31
488.605	312.31
488.709	395.31
488.813	286.31
488.917	318.31
489.021	345.31
489.125	617.31
489.229	352.31
489.333	476.31
489.437	437.31
489.541	353.31
489.645	298.31
489.749	376.31
489.853	398.31
489.956	303.31
490.06	439.31
490.164	352.31
490.268	327.31
490.372	387.31
490.476	343.31
490.579	312.31
490.683	964.31
490.787	464.31
490.891	359.31
490.995	377.31
491.098	396.31
491.202	356.31
491.306	400.31
491.41	440.31
491.513	300.31
491.617	347.31
491.721	576.31
491.824	605.31
491.928	370.31
492.032	589.31
492.136	415.31
492.239	288.31
492.343	390.31
492.446	804.31
492.55	451.31
492.654	292.31
492.757	338.31
492.861	409.31
492.965	328.31
493.068	393.31
493.172	362.31
493.275	327.31
493.379	308.31
493.482	473.31
493.586	489.31
493.689	570.31
493.793	407.31
493.896	421.31
494	420.31
494.103	479.31
494.207	669.31
494.31	755.31
494.414	438.31
494.517	393.31
494.621	314.31
494.724	401.31
494.828	349.31
494.931	319.31
495.034	343.31
495.138	568.31
495.241	333.31
495.345	1141.31
495.448	554.31
495.551	342.31
495.655	336.31
495.758	350.31
495.861	317.31
495.965	327.31
496.068	403.31
496.171	433.31
496.274	343.31
496.378	340.31
496.481	460.31
496.584	349.31
496.687	386.31
496.791	435.31
496.894	397.31
496.997	372.31
497.1	407.31
497.204	424.31
497.307	297.31
497.41	528.31
497.513	604.31
497.616	368.31
497.719	329.31
497.823	412.31
497.926	340.31
498.029	389.31
498.132	447.31
498.235	403.31
498.338	441.31
498.441	571.31
498.544	415.31
498.647	469.31
498.75	597.31
498.853	705.31
498.956	542.31
499.059	708.31
499.163	556.31
499.266	582.31
499.369	644.31
499.471	637.31
499.574	749.31
499.677	680.31
499.78	821.31
499.883	750.31
499.986	843.31
500.089	858.31
500.192	946.31
500.295	932.31
500.398	857.31
500.501	929.31
500.604	785.31
500.707	696.31
500.809	807.31
500.912	825.31
501.015	742.31
501.118	689.31
501.221	732.31
501.324	629.31
501.426	588.31
501.529	567.31
501.632	514.31
501.735	444.31
501.837	478.31
501.94	425.31
502.043	437.31
502.146	501.31
502.248	464.31
502.351	395.31
502.454	433.31
502.557	356.31
502.659	397.31
502.762	369.31
502.865	348.31
502.967	283.31
503.07	349.31
503.173	427.31
503.275	370.31
503.378	315.31
503.48	362.31
503.583	391.31
503.686	408.31
503.788	650.31
503.891	372.31
503.993	557.31
504.096	352.31
504.198	379.31
504.301	280.31
504.403	344.31
504.506	423.31
504.608	321.31
504.711	292.31
504.813	468.31
504.916	344.31
505.018	281.31
505.121	308.31
505.223	356.31
505.326	304.31
505.428	414.31
505.531	374.31
505.633	316.31
505.735	251.31
505.838	326.31
505.94	299.31
506.042	240.31
506.145	235.31
506.247	357.31
506.35	241.31
506.452	316.31
506.554	288.31
506.656	300.31
506.759	222.31
506.861	325.31
506.963	268.31
507.066	279.31
507.168	427.31
507.27	228.31
507.372	185.31
507.475	249.31
507.577	249.31
507.679	218.31
507.781	228.31
507.883	275.31
507.986	213.31
508.088	246.31
508.19	324.31
508.292	289.31
508.394	221.31
508.496	235.31
508.598	205.31
508.701	207.31
508.803	244.31
508.905	188.31
509.007	228.31
509.109	384.31
509.211	292.31
509.313	219.31
509.415	183.31
509.517	290.31
509.619	198.31
509.721	277.31
509.823	255.31
509.925	369.31
510.027	233.31
510.129	292.31
510.231	273.31
510.333	198.31
510.435	202.31
510.537	300.31
510.639	293.31
510.741	233.31
510.843	355.31
510.945	249.31
511.047	289.31
511.148	307.31
511.25	212.31
511.352	242.31
511.454	215.31
511.556	306.31
511.658	188.31
511.76	302.31
511.861	379.31
511.963	194.31
512.065	198.31
512.167	263.31
512.268	414.31
512.37	274.31
512.472	261.31
512.574	280.31
512.676	297.31
512.777	226.31
512.879	191.31
512.981	193.31
513.082	266.31
513.184	279.31
513.286	702.31
513.387	326.31
513.489	401.31
513.591	339.31
513.692	340.31
513.794	333.31
513.896	157.31
513.997	184.31
514.099	234.31
514.2	264.31
514.302	210.31
514.404	237.31
514.505	175.31
514.607	280.31
514.708	265.31
514.81	330.31
514.911	314.31
515.013	341.31
515.114	344.31
515.216	248.31
515.317	254.31
515.419	284.31
515.52	323.31
515.622	242.31
515.723	295.31
515.825	438.31
515.926	297.31
516.027	235.31
516.129	257.31
516.23	288.31
516.332	327.31
516.433	343.31
516.534	366.31
516.636	288.31
516.737	273.31
516.838	1364.31
516.94	464.31
517.041	366.31
517.142	492.31
517.244	459.31
517.345	395.31
517.446	467.31
517.547	446.31
517.649	336.31
517.75	386.31
517.851	302.31
517.952	628.31
518.054	442.31
518.155	498.31
518.256	330.31
518.357	491.31
518.458	356.31
518.56	276.31
518.661	331.31
518.762	371.31
518.863	436.31
518.964	417.31
519.065	334.31
519.166	260.31
519.268	265.31
519.369	601.31
519.47	345.31
519.571	323.31
519.672	242.31
519.773	303.31
519.874	312.31
519.975	361.31
520.076	403.31
520.177	408.31
520.278	294.31
520.379	362.31
520.48	226.31
520.581	256.31
520.682	295.31
520.783	280.31
520.884	341.31
520.985	359.31
521.086	339.31
521.187	319.31
521.288	284.31
521.389	394.31
521.489	300.31
521.59	240.31
521.691	369.31
521.792	272.31
521.893	395.31
521.994	480.31
522.095	337.31
522.195	416.31
522.296	450.31
522.397	444.31
522.498	330.31
522.599	244.31
522.699	385.31
522.8	294.31
522.901	401.31
523.002	380.31
523.102	495.31
523.203	354.31
523.304	501.31
523.405	305.31
523.505	316.31
523.606	360.31
523.707	374.31
523.807	347.31
523.908	323.31
524.009	457.31
524.109	332.31
524.21	285.31
524.31	391.31
524.411	441.31
524.512	457.31
524.612	359.31
524.713	547.31
524.813	315.31
524.914	535.31
525.014	6266.31
525.115	877.31
525.216	297.31
525.316	403.31
525.417	331.31
525.517	305.31
525.618	359.31
525.718	259.31
525.819	247.31
525.919	372.31
526.019	356.31
526.12	373.31
526.22	298.31
526.321	334.31
526.421	212.31
526.522	272.31
526.622	314.31
526.722	261.31
526.823	325.31
526.923	396.31
527.023	434.31
527.124	297.31
527.224	400.31
527.324	292.31
527.425	298.31
527.525	236.31
527.625	360.31
527.726	356.31
527.826	402.31
527.926	387.31
528.026	316.31
528.127	250.31
528.227	304.31
528.327	402.31
528.427	334.31
528.528	348.31
528.628	423.31
528.728	299.31
528.828	381.31
528.928	440.31
529.029	346.31
529.129	366.31
529.229	464.31
529.329	348.31
529.429	380.31
529.529	462.31
529.629	420.31
529.729	325.31
529.829	516.31
529.93	335.31
530.03	393.31
530.13	378.31
530.23	446.31
530.33	433.31
530.43	338.31
530.53	420.31
530.63	315.31
530.73	272.31
530.83	274.31
530.93	289.31
531.03	274.31
531.13	417.31
531.23	344.31
531.33	337.31
531.429	420.31
531.529	567.31
531.629	337.31
531.729	242.31
531.829	287.31
531.929	297.31
532.029	343.31
532.129	340.31
532.229	373.31
532.328	269.31
532.428	282.31
532.528	320.31
532.628	241.31
532.728	319.31
532.827	307.31
532.927	379.31
533.027	286.31
533.127	472.31
533.227	344.31
533.326	340.31
533.426	252.31
533.526	446.31
533.625	453.31
533.725	586.31
533.825	447.31
533.924	270.31
534.024	213.31
534.124	305.31
534.223	336.31
534.323	697.31
534.423	363.31
534.522	352.31
534.622	251.31
534.722	323.31
534.821	356.31
534.921	270.31
535.02	240.31
535.12	445.31
535.219	418.31
535.319	382.31
535.419	416.31
535.518	269.31
535.618	320.31
535.717	424.31
535.817	225.31
535.916	189.31
536.016	345.31
536.115	267.31
536.215	246.31
536.314	233.31
536.413	250.31
536.513	269.31
536.612	266.31
536.712	277.31
536.811	263.31
536.91	182.31
537.01	229.31
537.109	267.31
537.209	249.31
537.308	246.31
537.407	241.31
537.507	271.31
537.606	248.31
537.705	340.31
537.805	259.31
537.904	219.31
538.003	350.31
538.102	366.31
538.202	240.31
538.301	376.31
538.4	340.31
538.499	298.31
538.599	337.31
538.698	516.31
538.797	241.31
538.896	361.31
538.995	355.31
539.095	244.31
539.194	452.31
539.293	306.31
539.392	269.31
539.491	272.31
539.59	326.31
539.689	399.31
539.789	344.31
539.888	206.31
539.987	186.31
540.086	236.31
540.185	260.31
540.284	339.31
540.383	310.31
540.482	236.31
540.581	325.31
540.68	285.31
540.779	285.31
540.878	326.31
540.977	300.31
541.076	263.31
541.175	357.31
541.274	537.31
541.373	351.31
541.472	322.31
541.571	280.31
541.67	1643.31
541.769	483.31
541.868	379.31
541.966	322.31
542.065	301.31
542.164	356.31
542.263	251.31
542.362	255.31
542.461	385.31
542.56	377.31
542.658	348.31
542.757	284.31
542.856	257.31
542.955	209.31
543.054	205.31
543.152	438.31
543.251	245.31
543.35	383.31
543.449	374.31
543.547	284.31
543.646	237.31
543.745	355.31
543.843	374.31
543.942	309.31
544.041	268.31
544.14	375.31
544.238	281.31
544.337	541.31
544.436	411.31
544.534	427.31
544.633	340.31
544.731	345.31
544.83	351.31
544.929	329.31
545.027	321.31
545.126	288.31
545.224	351.31
545.323	269.31
545.421	340.31
545.52	300.31
545.619	289.31
545.717	362.31
545.816	341.31
545.914	374.31
546.013	609.31
546.111	484.31
546.209	275.31
546.308	281.31
546.406	281.31
