Data from 35g_HRC06701__26__453.txt Node

Date: Thu Apr 18 02:31:58 CDT 2024
User: Estudiantes 2
Spectrometer: HR+C0670
Trigger mode: 4
Integration Time (sec): 1.000000E0
Scans to average: 1
Electric dark correction enabled: true
Nonlinearity correction enabled: false
Boxcar width: 0
XAxis mode: Wavelengths
Number of Pixels in Spectrum: 2048
>>>>>Begin Spectral Data<<<<<
407.81	-85.44
407.921	-85.44
408.032	-85.44
408.143	-163.44
408.254	-136.44
408.365	84.56
408.476	277.56
408.587	-45.44
408.699	-39.44
408.81	6.56
408.921	-72.44
409.032	-50.44
409.143	64.56
409.254	22.56
409.365	85.56
409.476	-0.44
409.587	-9.44
409.698	61.56
409.809	144.56
409.92	-39.44
410.031	-38.44
410.142	63.56
410.253	50.56
410.364	44.56
410.475	577.56
410.585	2770.56
410.696	2986.56
410.807	2888.56
410.918	2981.56
411.029	2995.56
411.14	3000.56
411.251	2947.56
411.362	3035.56
411.472	2998.56
411.583	3017.56
411.694	3185.56
411.805	3031.56
411.916	3097.56
412.026	3237.56
412.137	3052.56
412.248	3052.56
412.359	3050.56
412.47	2954.56
412.58	2917.56
412.691	3021.56
412.802	2911.56
412.912	2944.56
413.023	3039.56
413.134	2997.56
413.245	2990.56
413.355	3018.56
413.466	2990.56
413.577	2944.56
413.687	3065.56
413.798	2953.56
413.909	2966.56
414.019	3088.56
414.13	3085.56
414.24	2920.56
414.351	3085.56
414.462	3224.56
414.572	3132.56
414.683	3095.56
414.793	3061.56
414.904	3488.56
415.014	2995.56
415.125	3036.56
415.235	3165.56
415.346	3210.56
415.456	3117.56
415.567	3080.56
415.677	2996.56
415.788	3037.56
415.898	2985.56
416.009	2976.56
416.119	3063.56
416.23	3017.56
416.34	3020.56
416.45	2980.56
416.561	3647.56
416.671	3185.56
416.782	2991.56
416.892	3052.56
417.002	3153.56
417.113	3208.56
417.223	3157.56
417.333	3087.56
417.444	3209.56
417.554	3215.56
417.664	3269.56
417.775	3199.56
417.885	3208.56
417.995	3309.56
418.106	3593.56
418.216	3316.56
418.326	3554.56
418.436	3571.56
418.547	3525.56
418.657	3464.56
418.767	3661.56
418.877	3550.56
418.987	3597.56
419.098	3541.56
419.208	3652.56
419.318	3685.56
419.428	3604.56
419.538	3597.56
419.648	3618.56
419.759	3512.56
419.869	3588.56
419.979	3544.56
420.089	3608.56
420.199	3537.56
420.309	3670.56
420.419	3612.56
420.529	3657.56
420.639	3936.56
420.749	3698.56
420.859	3703.56
420.969	3726.56
421.079	3823.56
421.189	3634.56
421.299	3575.56
421.409	3651.56
421.519	3838.56
421.629	3806.56
421.739	3780.56
421.849	3693.56
421.959	3778.56
422.069	3944.56
422.179	3893.56
422.289	3980.56
422.399	4041.56
422.509	4147.56
422.619	6354.56
422.729	4382.56
422.838	4047.56
422.948	4245.56
423.058	4131.56
423.168	4341.56
423.278	4192.56
423.388	4350.56
423.498	4548.56
423.607	4381.56
423.717	4860.56
423.827	4713.56
423.937	4449.56
424.046	4596.56
424.156	4686.56
424.266	4522.56
424.376	4837.56
424.485	4747.56
424.595	4587.56
424.705	4531.56
424.815	4567.56
424.924	5150.56
425.034	4668.56
425.144	4546.56
425.253	4496.56
425.363	4637.56
425.473	4741.56
425.582	4493.56
425.692	4587.56
425.801	4595.56
425.911	4828.56
426.021	4794.56
426.13	4743.56
426.24	4919.56
426.349	4836.56
426.459	4773.56
426.568	4733.56
426.678	4906.56
426.787	4834.56
426.897	4742.56
427.006	4825.56
427.116	4884.56
427.225	4749.56
427.335	4998.56
427.444	4922.56
427.554	4919.56
427.663	4995.56
427.773	5005.56
427.882	5104.56
427.992	4891.56
428.101	5015.56
428.21	4940.56
428.32	5069.56
428.429	5035.56
428.539	5385.56
428.648	5060.56
428.757	5233.56
428.867	5310.56
428.976	5301.56
429.085	5190.56
429.195	5265.56
429.304	5233.56
429.413	5327.56
429.523	5465.56
429.632	5330.56
429.741	5332.56
429.85	5277.56
429.96	5502.56
430.069	5416.56
430.178	5473.56
430.287	5927.56
430.397	5519.56
430.506	5514.56
430.615	5592.56
430.724	5616.56
430.833	5626.56
430.943	5667.56
431.052	5689.56
431.161	5659.56
431.27	5825.56
431.379	5920.56
431.488	6088.56
431.597	6093.56
431.706	6230.56
431.816	6114.56
431.925	6127.56
432.034	6040.56
432.143	6135.56
432.252	6041.56
432.361	6127.56
432.47	6087.56
432.579	6044.56
432.688	6047.56
432.797	6129.56
432.906	5908.56
433.015	6149.56
433.124	6571.56
433.233	6146.56
433.342	6231.56
433.451	6232.56
433.56	6199.56
433.669	6192.56
433.778	6160.56
433.886	6392.56
433.995	6345.56
434.104	6613.56
434.213	6652.56
434.322	6832.56
434.431	6959.56
434.54	7130.56
434.649	7464.56
434.757	7297.56
434.866	7155.56
434.975	7036.56
435.084	6773.56
435.193	6676.56
435.301	6671.56
435.41	6789.56
435.519	6775.56
435.628	6023.56
435.737	5955.56
435.845	5863.56
435.954	5926.56
436.063	5858.56
436.171	5856.56
436.28	5818.56
436.389	6116.56
436.498	5902.56
436.606	5937.56
436.715	6125.56
436.823	5760.56
436.932	5689.56
437.041	5726.56
437.149	5679.56
437.258	5524.56
437.367	5466.56
437.475	5408.56
437.584	5750.56
437.692	5471.56
437.801	7101.56
437.91	5481.56
438.018	5360.56
438.127	5287.56
438.235	5489.56
438.344	5504.56
438.452	5368.56
438.561	5278.56
438.669	5359.56
438.778	5297.56
438.886	5220.56
438.995	5238.56
439.103	5391.56
439.212	5344.56
439.32	5337.56
439.428	5332.56
439.537	5380.56
439.645	5577.56
439.754	5479.56
439.862	5307.56
439.97	5451.56
440.079	5518.56
440.187	5459.56
440.295	5703.56
440.404	5543.56
440.512	5544.56
440.62	5727.56
440.729	5682.56
440.837	5845.56
440.945	6691.56
441.054	6000.56
441.162	6055.56
441.27	6354.56
441.378	6389.56
441.487	6343.56
441.595	6885.56
441.703	6393.56
441.811	6139.56
441.92	6208.56
442.028	5980.56
442.136	6040.56
442.244	6097.56
442.352	6083.56
442.461	5918.56
442.569	5864.56
442.677	6015.56
442.785	6135.56
442.893	6036.56
443.001	6030.56
443.109	5879.56
443.217	5953.56
443.325	6065.56
443.434	6730.56
443.542	6380.56
443.65	6171.56
443.758	6443.56
443.866	6406.56
443.974	6795.56
444.082	6785.56
444.19	7020.56
444.298	7211.56
444.406	7540.56
444.514	7674.56
444.622	7754.56
444.73	7727.56
444.838	7354.56
444.946	7145.56
445.054	6840.56
445.161	6699.56
445.269	6387.56
445.377	6424.56
445.485	6376.56
445.593	6156.56
445.701	6212.56
445.809	6125.56
445.917	5999.56
446.025	5917.56
446.132	6057.56
446.24	5954.56
446.348	6049.56
446.456	5913.56
446.564	5919.56
446.671	5870.56
446.779	5853.56
446.887	5781.56
446.995	5730.56
447.102	5721.56
447.21	5757.56
447.318	5568.56
447.426	5636.56
447.533	5985.56
447.641	6991.56
447.749	5709.56
447.856	5727.56
447.964	5654.56
448.072	5713.56
448.179	5662.56
448.287	5669.56
448.395	5736.56
448.502	5566.56
448.61	5745.56
448.718	5647.56
448.825	5734.56
448.933	5745.56
449.04	5695.56
449.148	5831.56
449.256	5840.56
449.363	5925.56
449.471	5866.56
449.578	5929.56
449.686	5950.56
449.793	6064.56
449.901	5924.56
450.008	6104.56
450.116	6073.56
450.223	6153.56
450.331	6311.56
450.438	6442.56
450.546	6417.56
450.653	6531.56
450.76	6750.56
450.868	6532.56
450.975	6914.56
451.083	6682.56
451.19	6745.56
451.297	6641.56
451.405	6707.56
451.512	6628.56
451.619	6788.56
451.727	6932.56
451.834	6662.56
451.941	6796.56
452.049	6863.56
452.156	6833.56
452.263	6932.56
452.371	6938.56
452.478	7077.56
452.585	7175.56
452.692	6964.56
452.8	7087.56
452.907	7147.56
453.014	7121.56
453.121	7119.56
453.229	7143.56
453.336	7138.56
453.443	7253.56
453.55	7222.56
453.657	7081.56
453.765	7266.56
453.872	7271.56
453.979	7329.56
454.086	7360.56
454.193	7376.56
454.3	7201.56
454.407	7406.56
454.514	7459.56
454.621	7317.56
454.729	7275.56
454.836	7435.56
454.943	7582.56
455.05	7445.56
455.157	7677.56
455.264	7583.56
455.371	7639.56
455.478	7566.56
455.585	7907.56
455.692	7700.56
455.799	7911.56
455.906	7800.56
456.013	7753.56
456.12	7697.56
456.227	7754.56
456.334	7956.56
456.44	8126.56
456.547	8128.56
456.654	7877.56
456.761	8046.56
456.868	8225.56
456.975	8186.56
457.082	8053.56
457.189	7953.56
457.296	8200.56
457.402	8209.56
457.509	8155.56
457.616	8433.56
457.723	8819.56
457.83	8546.56
457.936	8633.56
458.043	9160.56
458.15	8793.56
458.257	9034.56
458.363	9187.56
458.47	9309.56
458.577	9408.56
458.684	9395.56
458.79	10026.56
458.897	10113.56
459.004	10402.56
459.11	10241.56
459.217	10392.56
459.324	10779.56
459.43	10894.56
459.537	11240.56
459.644	11146.56
459.75	11460.56
459.857	11960.56
459.964	11918.56
460.07	12038.56
460.177	12355.56
460.283	12391.56
460.39	12604.56
460.496	12319.56
460.603	12358.56
460.71	12325.56
460.816	12242.56
460.923	12014.56
461.029	11990.56
461.136	12164.56
461.242	12086.56
461.349	12139.56
461.455	12272.56
461.562	12544.56
461.668	12454.56
461.774	12364.56
461.881	12578.56
461.987	12917.56
462.094	13309.56
462.2	13477.56
462.307	13426.56
462.413	13382.56
462.519	13867.56
462.626	14586.56
462.732	14586.56
462.838	14586.56
462.945	14586.56
463.051	14586.56
463.157	14586.56
463.264	14586.56
463.37	14579.56
463.476	14089.56
463.583	13859.56
463.689	13804.56
463.795	13887.56
463.901	13997.56
464.008	14279.56
464.114	14312.56
464.22	14072.56
464.326	13956.56
464.433	13356.56
464.539	13129.56
464.645	12877.56
464.751	12883.56
464.857	12372.56
464.963	11756.56
465.07	11361.56
465.176	10792.56
465.282	10608.56
465.388	10404.56
465.494	9960.56
465.6	9775.56
465.706	9495.56
465.812	9391.56
465.918	9516.56
466.024	9377.56
466.131	9058.56
466.237	8982.56
466.343	8793.56
466.449	8483.56
466.555	8486.56
466.661	8331.56
466.767	8326.56
466.873	8183.56
466.979	8325.56
467.085	8249.56
467.191	8275.56
467.296	8277.56
467.402	8220.56
467.508	8156.56
467.614	8204.56
467.72	7954.56
467.826	7766.56
467.932	7544.56
468.038	7483.56
468.144	7554.56
468.25	7472.56
468.355	7386.56
468.461	7432.56
468.567	7324.56
468.673	7396.56
468.779	7444.56
468.885	7305.56
468.99	7317.56
469.096	7480.56
469.202	7541.56
469.308	7400.56
469.413	7752.56
469.519	7792.56
469.625	7699.56
469.731	7817.56
469.836	7846.56
469.942	7955.56
470.048	7870.56
470.153	7882.56
470.259	7807.56
470.365	7957.56
470.47	7847.56
470.576	7693.56
470.682	7647.56
470.787	7559.56
470.893	7417.56
470.999	7286.56
471.104	7238.56
471.21	7126.56
471.315	6891.56
471.421	6883.56
471.527	7085.56
471.632	6763.56
471.738	6768.56
471.843	6519.56
471.949	6632.56
472.054	6515.56
472.16	6504.56
472.265	6310.56
472.371	6359.56
472.476	6324.56
472.582	6392.56
472.687	6099.56
472.793	6284.56
472.898	6246.56
473.003	6055.56
473.109	6016.56
473.214	6053.56
473.32	6127.56
473.425	6094.56
473.53	6097.56
473.636	6063.56
473.741	5956.56
473.847	6034.56
473.952	6006.56
474.057	6068.56
474.163	6083.56
474.268	6067.56
474.373	6004.56
474.478	5896.56
474.584	6028.56
474.689	5959.56
474.794	5968.56
474.9	6447.56
475.005	5995.56
475.11	6143.56
475.215	5961.56
475.321	6042.56
475.426	6212.56
475.531	6220.56
475.636	6110.56
475.741	6128.56
475.846	6256.56
475.952	6469.56
476.057	6185.56
476.162	6201.56
476.267	6373.56
476.372	6676.56
476.477	6217.56
476.582	6467.56
476.687	6282.56
476.793	6313.56
476.898	6513.56
477.003	6520.56
477.108	6475.56
477.213	6572.56
477.318	6748.56
477.423	6853.56
477.528	6955.56
477.633	7033.56
477.738	7199.56
477.843	6985.56
477.948	7289.56
478.053	7315.56
478.158	7272.56
478.263	7408.56
478.368	7500.56
478.473	7601.56
478.578	7676.56
478.682	7721.56
478.787	7798.56
478.892	7686.56
478.997	7815.56
479.102	7699.56
479.207	7722.56
479.312	7833.56
479.417	7812.56
479.521	7744.56
479.626	7886.56
479.731	8041.56
479.836	7924.56
479.941	8342.56
480.045	8487.56
480.15	8666.56
480.255	8641.56
480.36	8719.56
480.465	8576.56
480.569	8576.56
480.674	8262.56
480.779	8028.56
480.883	8028.56
480.988	8120.56
481.093	7955.56
481.197	7782.56
481.302	7744.56
481.407	7959.56
481.511	9180.56
481.616	7982.56
481.721	7775.56
481.825	7984.56
481.93	7780.56
482.035	7687.56
482.139	7921.56
482.244	7909.56
482.348	7816.56
482.453	7956.56
482.557	8023.56
482.662	7947.56
482.767	7973.56
482.871	8083.56
482.976	8149.56
483.08	8283.56
483.185	8413.56
483.289	8256.56
483.394	8376.56
483.498	8390.56
483.603	8457.56
483.707	8601.56
483.811	8715.56
483.916	8711.56
484.02	8788.56
484.125	8938.56
484.229	8862.56
484.333	9100.56
484.438	8978.56
484.542	8978.56
484.647	9179.56
484.751	9377.56
484.855	9385.56
484.96	9415.56
485.064	9447.56
485.168	9669.56
485.273	9522.56
485.377	9684.56
485.481	9978.56
485.585	9772.56
485.69	9886.56
485.794	9943.56
485.898	9989.56
486.002	9944.56
486.107	10048.56
486.211	10071.56
486.315	10038.56
486.419	10019.56
486.524	10278.56
486.628	10012.56
486.732	10096.56
486.836	9919.56
486.94	10132.56
487.044	10051.56
487.148	10119.56
487.253	10057.56
487.357	10158.56
487.461	10200.56
487.565	10085.56
487.669	10081.56
487.773	9967.56
487.877	10127.56
487.981	10035.56
488.085	10100.56
488.189	9902.56
488.293	10110.56
488.397	10456.56
488.501	10003.56
488.605	10064.56
488.709	9955.56
488.813	10044.56
488.917	9927.56
489.021	9974.56
489.125	10417.56
489.229	10148.56
489.333	10291.56
489.437	10128.56
489.541	10332.56
489.645	10193.56
489.749	10219.56
489.853	10149.56
489.956	10171.56
490.06	10150.56
490.164	10204.56
490.268	10133.56
490.372	10214.56
490.476	10213.56
490.579	10206.56
490.683	10880.56
490.787	10202.56
490.891	10135.56
490.995	10184.56
491.098	10181.56
491.202	10081.56
491.306	10272.56
491.41	10236.56
491.513	10095.56
491.617	10181.56
491.721	10353.56
491.824	10260.56
491.928	10183.56
492.032	10329.56
492.136	10154.56
492.239	10176.56
492.343	10240.56
492.446	10695.56
492.55	10335.56
492.654	10176.56
492.757	10135.56
492.861	10214.56
492.965	10194.56
493.068	10278.56
493.172	10165.56
493.275	10275.56
493.379	10174.56
493.482	10268.56
493.586	10465.56
493.689	10536.56
493.793	10413.56
493.896	10559.56
494	10645.56
494.103	10565.56
494.207	10840.56
494.31	10868.56
494.414	10376.56
494.517	10318.56
494.621	10330.56
494.724	10129.56
494.828	10226.56
494.931	10143.56
495.034	10135.56
495.138	10335.56
495.241	10028.56
495.345	11035.56
495.448	10200.56
495.551	10114.56
495.655	10178.56
495.758	10128.56
495.861	10050.56
495.965	10235.56
496.068	10141.56
496.171	10242.56
496.274	10285.56
496.378	10257.56
496.481	10424.56
496.584	10268.56
496.687	10566.56
496.791	10564.56
496.894	10600.56
496.997	10598.56
497.1	10646.56
497.204	10824.56
497.307	10729.56
497.41	11186.56
497.513	11445.56
497.616	11300.56
497.719	11326.56
497.823	11670.56
497.926	11812.56
498.029	12176.56
498.132	12308.56
498.235	12796.56
498.338	13275.56
498.441	13544.56
498.544	13931.56
498.647	14407.56
498.75	14586.56
498.853	14586.56
498.956	14586.56
499.059	14586.56
499.163	14586.56
499.266	14586.56
499.369	14586.56
499.471	14586.56
499.574	14586.56
499.677	14586.56
499.78	14586.56
499.883	14586.56
499.986	14586.56
500.089	14586.56
500.192	14586.56
500.295	14586.56
500.398	14586.56
500.501	14586.56
500.604	14586.56
500.707	14586.56
500.809	14586.56
500.912	14586.56
501.015	14586.56
501.118	14586.56
501.221	14586.56
501.324	14586.56
501.426	14586.56
501.529	14586.56
501.632	14586.56
501.735	14482.56
501.837	14037.56
501.94	13543.56
502.043	13041.56
502.146	12802.56
502.248	12401.56
502.351	12239.56
502.454	11957.56
502.557	11582.56
502.659	11386.56
502.762	10921.56
502.865	10711.56
502.967	10449.56
503.07	10281.56
503.173	10126.56
503.275	9973.56
503.378	9845.56
503.48	9645.56
503.583	9667.56
503.686	9724.56
503.788	10004.56
503.891	9685.56
503.993	9993.56
504.096	9784.56
504.198	10201.56
504.301	10202.56
504.403	10167.56
504.506	9868.56
504.608	9498.56
504.711	9500.56
504.813	8936.56
504.916	8698.56
505.018	8392.56
505.121	8174.56
505.223	8308.56
505.326	8067.56
505.428	7998.56
505.531	7860.56
505.633	7776.56
505.735	7640.56
505.838	7430.56
505.94	7509.56
506.042	7348.56
506.145	7300.56
506.247	7356.56
506.35	7266.56
506.452	7095.56
506.554	7094.56
506.656	7106.56
506.759	7046.56
506.861	7186.56
506.963	7032.56
507.066	7023.56
507.168	7033.56
507.27	6837.56
507.372	6840.56
507.475	6919.56
507.577	6835.56
507.679	6721.56
507.781	6636.56
507.883	6640.56
507.986	6659.56
508.088	6560.56
508.19	6638.56
508.292	6592.56
508.394	6525.56
508.496	6495.56
508.598	6496.56
508.701	6494.56
508.803	6528.56
508.905	6316.56
509.007	6487.56
509.109	6409.56
509.211	6470.56
509.313	6440.56
509.415	6324.56
509.517	6367.56
509.619	6320.56
509.721	6415.56
509.823	6350.56
509.925	6421.56
510.027	6401.56
510.129	6284.56
510.231	6357.56
510.333	6246.56
510.435	6228.56
510.537	6393.56
510.639	6315.56
510.741	6300.56
510.843	6289.56
510.945	6394.56
511.047	6464.56
511.148	6309.56
511.25	6315.56
511.352	6381.56
511.454	6185.56
511.556	6381.56
511.658	6324.56
511.76	6436.56
511.861	6531.56
511.963	6319.56
512.065	6221.56
512.167	6201.56
512.268	6535.56
512.37	6390.56
512.472	6376.56
512.574	6426.56
512.676	6585.56
512.777	6208.56
512.879	6341.56
512.981	6241.56
513.082	6461.56
513.184	6425.56
513.286	6990.56
513.387	6517.56
513.489	6585.56
513.591	6572.56
513.692	6597.56
513.794	6566.56
513.896	6412.56
513.997	6449.56
514.099	6383.56
514.2	6632.56
514.302	6771.56
514.404	6704.56
514.505	6640.56
514.607	6804.56
514.708	6813.56
514.81	6810.56
514.911	6977.56
515.013	7095.56
515.114	7031.56
515.216	7077.56
515.317	7170.56
515.419	7105.56
515.52	7328.56
515.622	7211.56
515.723	7374.56
515.825	7729.56
515.926	7626.56
516.027	7605.56
516.129	7810.56
516.23	8042.56
516.332	8154.56
516.433	8133.56
516.534	8469.56
516.636	8612.56
516.737	8738.56
516.838	10289.56
516.94	9434.56
517.041	9591.56
517.142	9845.56
517.244	10280.56
517.345	10094.56
517.446	10418.56
517.547	10515.56
517.649	10417.56
517.75	10399.56
517.851	10311.56
517.952	10530.56
518.054	10053.56
518.155	9985.56
518.256	9725.56
518.357	9601.56
518.458	9118.56
518.56	9031.56
518.661	8879.56
518.762	8690.56
518.863	8644.56
518.964	8605.56
519.065	8223.56
519.166	8172.56
519.268	8055.56
519.369	8204.56
519.47	8002.56
519.571	7939.56
519.672	7543.56
519.773	7644.56
519.874	7845.56
519.975	7800.56
520.076	7644.56
520.177	7659.56
520.278	7692.56
520.379	7682.56
520.48	7570.56
520.581	7537.56
520.682	7463.56
520.783	7477.56
520.884	7570.56
520.985	7427.56
521.086	7475.56
521.187	7569.56
521.288	7392.56
521.389	7414.56
521.489	7438.56
521.59	7349.56
521.691	7312.56
521.792	7343.56
521.893	7419.56
521.994	7384.56
522.095	7244.56
522.195	7383.56
522.296	7404.56
522.397	7362.56
522.498	7341.56
522.599	7265.56
522.699	7359.56
522.8	7285.56
522.901	7526.56
523.002	7224.56
523.102	7510.56
523.203	7464.56
523.304	7477.56
523.405	7330.56
523.505	7394.56
523.606	7402.56
523.707	7360.56
523.807	7284.56
523.908	7407.56
524.009	7417.56
524.109	7321.56
524.21	7280.56
524.31	7332.56
524.411	7505.56
524.512	7569.56
524.612	7498.56
524.713	7593.56
524.813	7452.56
524.914	7760.56
525.014	13558.56
525.115	7793.56
525.216	7328.56
525.316	7409.56
525.417	7407.56
525.517	7423.56
525.618	7356.56
525.718	7272.56
525.819	7446.56
525.919	7470.56
526.019	7395.56
526.12	7474.56
526.22	7247.56
526.321	7386.56
526.421	7412.56
526.522	7376.56
526.622	7325.56
526.722	7336.56
526.823	7412.56
526.923	7376.56
527.023	7602.56
527.124	7553.56
527.224	7477.56
527.324	7376.56
527.425	7402.56
527.525	7275.56
527.625	7287.56
527.726	7492.56
527.826	7632.56
527.926	7381.56
528.026	7432.56
528.127	7324.56
528.227	7403.56
528.327	7481.56
528.427	7451.56
528.528	7460.56
528.628	7429.56
528.728	7416.56
528.828	7543.56
528.928	7504.56
529.029	7329.56
529.129	7503.56
529.229	7282.56
529.329	7439.56
529.429	7472.56
529.529	7524.56
529.629	7410.56
529.729	7319.56
529.829	7505.56
529.93	7300.56
530.03	7362.56
530.13	7264.56
530.23	7319.56
530.33	7375.56
530.43	7393.56
530.53	7381.56
530.63	7285.56
530.73	7336.56
530.83	7188.56
530.93	7178.56
531.03	7289.56
531.13	7318.56
531.23	7361.56
531.33	7434.56
531.429	7373.56
531.529	7472.56
531.629	7432.56
531.729	7209.56
531.829	7309.56
531.929	7208.56
532.029	7325.56
532.129	7219.56
532.229	7233.56
532.328	7237.56
532.428	7252.56
532.528	6957.56
532.628	7021.56
532.728	7169.56
532.827	6948.56
532.927	7127.56
533.027	7067.56
533.127	7250.56
533.227	7062.56
533.326	7056.56
533.426	6943.56
533.526	7116.56
533.625	7201.56
533.725	7335.56
533.825	7014.56
533.924	6926.56
534.024	6931.56
534.124	6878.56
534.223	6809.56
534.323	7273.56
534.423	6773.56
534.522	6799.56
534.622	6751.56
534.722	6665.56
534.821	6724.56
534.921	6670.56
535.02	6515.56
535.12	6649.56
535.219	6723.56
535.319	6602.56
535.419	6615.56
535.518	6506.56
535.618	6569.56
535.717	6456.56
535.817	6277.56
535.916	6270.56
536.016	6389.56
536.115	6169.56
536.215	6285.56
536.314	6118.56
536.413	6056.56
