Data from 35g_HRC06701__49__476.txt Node

Date: Thu Apr 18 02:32:21 CDT 2024
User: Estudiantes 2
Spectrometer: HR+C0670
Trigger mode: 4
Integration Time (sec): 1.000000E0
Scans to average: 1
Electric dark correction enabled: true
Nonlinearity correction enabled: false
Boxcar width: 0
XAxis mode: Wavelengths
Number of Pixels in Spectrum: 2048
>>>>>Begin Spectral Data<<<<<
407.81	-138.94
407.921	-138.94
408.032	-138.94
408.143	-98.94
408.254	-163.94
408.365	21.06
408.476	310.06
408.587	-5.94
408.699	-31.94
408.81	-10.94
408.921	-62.94
409.032	-38.94
409.143	27.06
409.254	75.06
409.365	73.06
409.476	-53.94
409.587	35.06
409.698	65.06
409.809	116.06
409.92	0.06
410.031	-26.94
410.142	12.06
410.253	39.06
410.364	49.06
410.475	-40.94
410.585	74.06
410.696	57.06
410.807	6.06
410.918	26.06
411.029	92.06
411.14	45.06
411.251	0.06
411.362	128.06
411.472	52.06
411.583	22.06
411.694	123.06
411.805	33.06
411.916	-3.94
412.026	108.06
412.137	87.06
412.248	22.06
412.359	-6.94
412.47	30.06
412.58	-10.94
412.691	38.06
412.802	80.06
412.912	26.06
413.023	6.06
413.134	34.06
413.245	157.06
413.355	41.06
413.466	4.06
413.577	61.06
413.687	101.06
413.798	-28.94
413.909	111.06
414.019	16.06
414.13	30.06
414.24	1.06
414.351	70.06
414.462	228.06
414.572	82.06
414.683	124.06
414.793	40.06
414.904	367.06
415.014	104.06
415.125	-4.94
415.235	93.06
415.346	179.06
415.456	123.06
415.567	44.06
415.677	102.06
415.788	102.06
415.898	36.06
416.009	18.06
416.119	84.06
416.23	35.06
416.34	-14.94
416.45	89.06
416.561	834.06
416.671	181.06
416.782	17.06
416.892	-7.94
417.002	59.06
417.113	108.06
417.223	93.06
417.333	-0.94
417.444	20.06
417.554	115.06
417.664	62.06
417.775	-37.94
417.885	76.06
417.995	4.06
418.106	143.06
418.216	113.06
418.326	62.06
418.436	31.06
418.547	66.06
418.657	-14.94
418.767	79.06
418.877	41.06
418.987	55.06
419.098	41.06
419.208	28.06
419.318	150.06
419.428	80.06
419.538	11.06
419.648	101.06
419.759	67.06
419.869	94.06
419.979	53.06
420.089	34.06
420.199	-8.94
420.309	69.06
420.419	141.06
420.529	23.06
420.639	578.06
420.749	193.06
420.859	87.06
420.969	48.06
421.079	305.06
421.189	140.06
421.299	118.06
421.409	33.06
421.519	156.06
421.629	143.06
421.739	47.06
421.849	31.06
421.959	-1.94
422.069	60.06
422.179	48.06
422.289	-26.94
422.399	26.06
422.509	175.06
422.619	2676.06
422.729	319.06
422.838	16.06
422.948	96.06
423.058	-24.94
423.168	62.06
423.278	79.06
423.388	39.06
423.498	67.06
423.607	77.06
423.717	327.06
423.827	346.06
423.937	92.06
424.046	98.06
424.156	97.06
424.266	48.06
424.376	263.06
424.485	178.06
424.595	48.06
424.705	51.06
424.815	52.06
424.924	476.06
425.034	169.06
425.144	-12.94
425.253	16.06
425.363	105.06
425.473	121.06
425.582	-12.94
425.692	36.06
425.801	9.06
425.911	161.06
426.021	87.06
426.13	178.06
426.24	258.06
426.349	169.06
426.459	100.06
426.568	5.06
426.678	173.06
426.787	81.06
426.897	25.06
427.006	38.06
427.116	145.06
427.225	86.06
427.335	97.06
427.444	77.06
427.554	139.06
427.663	31.06
427.773	42.06
427.882	159.06
427.992	10.06
428.101	45.06
428.21	78.06
428.32	50.06
428.429	-16.94
428.539	320.06
428.648	49.06
428.757	127.06
428.867	79.06
428.976	220.06
429.085	89.06
429.195	41.06
429.304	61.06
429.413	88.06
429.523	102.06
429.632	124.06
429.741	65.06
429.85	-2.94
429.96	76.06
430.069	57.06
430.178	20.06
430.287	300.06
430.397	107.06
430.506	32.06
430.615	22.06
430.724	149.06
430.833	59.06
430.943	58.06
431.052	82.06
431.161	4.06
431.27	37.06
431.379	41.06
431.488	165.06
431.597	73.06
431.706	135.06
431.816	70.06
431.925	38.06
432.034	26.06
432.143	140.06
432.252	41.06
432.361	134.06
432.47	81.06
432.579	46.06
432.688	70.06
432.797	77.06
432.906	43.06
433.015	74.06
433.124	478.06
433.233	142.06
433.342	119.06
433.451	50.06
433.56	86.06
433.669	34.06
433.778	20.06
433.886	86.06
433.995	63.06
434.104	150.06
434.213	68.06
434.322	53.06
434.431	145.06
434.54	49.06
434.649	224.06
434.757	73.06
434.866	61.06
434.975	177.06
435.084	144.06
435.193	134.06
435.301	379.06
435.41	476.06
435.519	519.06
435.628	98.06
435.737	105.06
435.845	7.06
435.954	7.06
436.063	126.06
436.171	58.06
436.28	74.06
436.389	201.06
436.498	112.06
436.606	110.06
436.715	253.06
436.823	68.06
436.932	12.06
437.041	49.06
437.149	150.06
437.258	9.06
437.367	39.06
437.475	54.06
437.584	259.06
437.692	89.06
437.801	1654.06
437.91	258.06
438.018	12.06
438.127	52.06
438.235	125.06
438.344	21.06
438.452	84.06
438.561	36.06
438.669	2.06
438.778	38.06
438.886	110.06
438.995	22.06
439.103	18.06
439.212	66.06
439.32	13.06
439.428	42.06
439.537	67.06
439.645	140.06
439.754	71.06
439.862	32.06
439.97	137.06
440.079	44.06
440.187	4.06
440.295	213.06
440.404	30.06
440.512	68.06
440.62	111.06
440.729	74.06
440.837	100.06
440.945	711.06
441.054	150.06
441.162	9.06
441.27	123.06
441.378	60.06
441.487	25.06
441.595	381.06
441.703	200.06
441.811	77.06
441.92	24.06
442.028	20.06
442.136	21.06
442.244	106.06
442.352	110.06
442.461	6.06
442.569	-11.94
442.677	35.06
442.785	131.06
442.893	34.06
443.001	31.06
443.109	40.06
443.217	-26.94
443.325	4.06
443.434	585.06
443.542	277.06
443.65	57.06
443.758	187.06
443.866	51.06
443.974	305.06
444.082	99.06
444.19	86.06
444.298	65.06
444.406	100.06
444.514	69.06
444.622	45.06
444.73	115.06
444.838	129.06
444.946	126.06
445.054	59.06
445.161	70.06
445.269	36.06
445.377	100.06
445.485	96.06
445.593	98.06
445.701	284.06
445.809	153.06
445.917	165.06
446.025	42.06
446.132	173.06
446.24	196.06
446.348	103.06
446.456	3.06
446.564	39.06
446.671	90.06
446.779	87.06
446.887	22.06
446.995	93.06
447.102	84.06
447.21	102.06
447.318	136.06
447.426	11.06
447.533	293.06
447.641	1309.06
447.749	239.06
447.856	43.06
447.964	99.06
448.072	206.06
448.179	26.06
448.287	82.06
448.395	173.06
448.502	62.06
448.61	70.06
448.718	69.06
448.825	96.06
448.933	77.06
449.04	59.06
449.148	68.06
449.256	35.06
449.363	75.06
449.471	94.06
449.578	133.06
449.686	10.06
449.793	176.06
449.901	35.06
450.008	61.06
450.116	122.06
450.223	46.06
450.331	109.06
450.438	111.06
450.546	51.06
450.653	102.06
450.76	97.06
450.868	152.06
450.975	249.06
451.083	92.06
451.19	161.06
451.297	91.06
451.405	154.06
451.512	117.06
451.619	196.06
451.727	172.06
451.834	89.06
451.941	58.06
452.049	65.06
452.156	68.06
452.263	138.06
452.371	61.06
452.478	94.06
452.585	240.06
452.692	45.06
452.8	125.06
452.907	275.06
453.014	143.06
453.121	85.06
453.229	157.06
453.336	176.06
453.443	178.06
453.55	58.06
453.657	173.06
453.765	130.06
453.872	127.06
453.979	226.06
454.086	79.06
454.193	93.06
454.3	143.06
454.407	219.06
454.514	204.06
454.621	115.06
454.729	99.06
454.836	78.06
454.943	90.06
455.05	216.06
455.157	190.06
455.264	76.06
455.371	174.06
455.478	116.06
455.585	303.06
455.692	220.06
455.799	257.06
455.906	76.06
456.013	103.06
456.12	52.06
456.227	97.06
456.334	130.06
456.44	227.06
456.547	107.06
456.654	41.06
456.761	172.06
456.868	177.06
456.975	164.06
457.082	157.06
457.189	73.06
457.296	147.06
457.402	110.06
457.509	88.06
457.616	82.06
457.723	291.06
457.83	165.06
457.936	57.06
458.043	410.06
458.15	177.06
458.257	194.06
458.363	134.06
458.47	140.06
458.577	159.06
458.684	74.06
458.79	104.06
458.897	168.06
459.004	178.06
459.11	104.06
459.217	171.06
459.324	162.06
459.43	225.06
459.537	411.06
459.644	99.06
459.75	90.06
459.857	498.06
459.964	160.06
460.07	182.06
460.177	184.06
460.283	226.06
460.39	275.06
460.496	175.06
460.603	228.06
460.71	138.06
460.816	110.06
460.923	140.06
461.029	148.06
461.136	177.06
461.242	182.06
461.349	161.06
461.455	86.06
461.562	442.06
461.668	265.06
461.774	173.06
461.881	221.06
461.987	204.06
462.094	165.06
462.2	191.06
462.307	265.06
462.413	110.06
462.519	94.06
462.626	240.06
462.732	180.06
462.838	136.06
462.945	253.06
463.051	217.06
463.157	157.06
463.264	160.06
463.37	217.06
463.476	174.06
463.583	176.06
463.689	167.06
463.795	126.06
463.901	202.06
464.008	326.06
464.114	101.06
464.22	101.06
464.326	188.06
464.433	135.06
464.539	138.06
464.645	169.06
464.751	366.06
464.857	167.06
464.963	73.06
465.07	264.06
465.176	196.06
465.282	197.06
465.388	348.06
465.494	113.06
465.6	137.06
465.706	85.06
465.812	82.06
465.918	165.06
466.024	121.06
466.131	203.06
466.237	103.06
466.343	48.06
466.449	138.06
466.555	82.06
466.661	65.06
466.767	128.06
466.873	108.06
466.979	247.06
467.085	162.06
467.191	166.06
467.296	68.06
467.402	76.06
467.508	202.06
467.614	252.06
467.72	145.06
467.826	123.06
467.932	109.06
468.038	59.06
468.144	163.06
468.25	132.06
468.355	46.06
468.461	139.06
468.567	84.06
468.673	105.06
468.779	125.06
468.885	126.06
468.99	38.06
469.096	70.06
469.202	257.06
469.308	154.06
469.413	141.06
469.519	134.06
469.625	96.06
469.731	126.06
469.836	100.06
469.942	273.06
470.048	133.06
470.153	133.06
470.259	162.06
470.365	166.06
470.47	168.06
470.576	192.06
470.682	112.06
470.787	97.06
470.893	108.06
470.999	159.06
471.104	185.06
471.21	122.06
471.315	50.06
471.421	29.06
471.527	271.06
471.632	237.06
471.738	162.06
471.843	93.06
471.949	209.06
472.054	130.06
472.16	46.06
472.265	136.06
472.371	93.06
472.476	89.06
472.582	227.06
472.687	140.06
472.793	64.06
472.898	127.06
473.003	129.06
473.109	49.06
473.214	23.06
473.32	93.06
473.425	117.06
473.53	68.06
473.636	79.06
473.741	56.06
473.847	49.06
473.952	113.06
474.057	209.06
474.163	132.06
474.268	26.06
474.373	198.06
474.478	29.06
474.584	41.06
474.689	182.06
474.794	106.06
474.9	348.06
475.005	84.06
475.11	260.06
475.215	36.06
475.321	87.06
475.426	317.06
475.531	236.06
475.636	79.06
475.741	92.06
475.846	188.06
475.952	306.06
476.057	205.06
476.162	188.06
476.267	247.06
476.372	420.06
476.477	117.06
476.582	205.06
476.687	98.06
476.793	155.06
476.898	64.06
477.003	113.06
477.108	145.06
477.213	50.06
477.318	94.06
477.423	186.06
477.528	183.06
477.633	160.06
477.738	170.06
477.843	71.06
477.948	96.06
478.053	77.06
478.158	87.06
478.263	126.06
478.368	88.06
478.473	229.06
478.578	113.06
478.682	50.06
478.787	204.06
478.892	112.06
478.997	157.06
479.102	119.06
479.207	111.06
479.312	219.06
479.417	168.06
479.521	113.06
479.626	197.06
479.731	109.06
479.836	144.06
479.941	227.06
480.045	187.06
480.15	213.06
480.255	144.06
480.36	54.06
480.465	149.06
480.569	245.06
480.674	113.06
480.779	63.06
480.883	121.06
480.988	155.06
481.093	133.06
481.197	215.06
481.302	131.06
481.407	164.06
481.511	2043.06
481.616	299.06
481.721	134.06
481.825	372.06
481.93	121.06
482.035	75.06
482.139	165.06
482.244	202.06
482.348	137.06
482.453	140.06
482.557	230.06
482.662	154.06
482.767	89.06
482.871	134.06
482.976	98.06
483.08	163.06
483.185	305.06
483.289	119.06
483.394	119.06
483.498	135.06
483.603	164.06
483.707	134.06
483.811	187.06
483.916	262.06
484.02	95.06
484.125	209.06
484.229	177.06
484.333	225.06
484.438	91.06
484.542	116.06
484.647	94.06
484.751	119.06
484.855	117.06
484.96	146.06
485.064	135.06
485.168	115.06
485.273	156.06
485.377	113.06
485.481	348.06
485.585	160.06
485.69	134.06
485.794	178.06
485.898	193.06
486.002	109.06
486.107	134.06
486.211	153.06
486.315	204.06
486.419	202.06
486.524	172.06
486.628	157.06
486.732	103.06
486.836	114.06
486.94	256.06
487.044	165.06
487.148	131.06
487.253	138.06
487.357	212.06
487.461	328.06
487.565	157.06
487.669	193.06
487.773	139.06
487.877	260.06
487.981	234.06
488.085	202.06
488.189	149.06
488.293	331.06
488.397	667.06
488.501	216.06
488.605	177.06
488.709	191.06
488.813	148.06
488.917	122.06
489.021	202.06
489.125	408.06
489.229	186.06
489.333	341.06
489.437	203.06
489.541	189.06
489.645	152.06
489.749	192.06
489.853	185.06
489.956	146.06
490.06	237.06
490.164	205.06
490.268	150.06
490.372	216.06
490.476	188.06
490.579	126.06
490.683	856.06
490.787	299.06
490.891	172.06
490.995	221.06
491.098	236.06
491.202	127.06
491.306	182.06
491.41	226.06
491.513	162.06
491.617	186.06
491.721	404.06
491.824	409.06
491.928	207.06
492.032	431.06
492.136	200.06
492.239	110.06
492.343	194.06
492.446	580.06
492.55	283.06
492.654	138.06
492.757	141.06
492.861	253.06
492.965	164.06
493.068	268.06
493.172	149.06
493.275	142.06
493.379	145.06
493.482	291.06
493.586	294.06
493.689	408.06
493.793	206.06
493.896	286.06
494	272.06
494.103	318.06
494.207	495.06
494.31	579.06
494.414	304.06
494.517	205.06
494.621	118.06
494.724	229.06
494.828	150.06
494.931	158.06
495.034	167.06
495.138	381.06
495.241	155.06
495.345	1012.06
495.448	388.06
495.551	201.06
495.655	194.06
495.758	201.06
495.861	146.06
495.965	128.06
496.068	222.06
496.171	240.06
496.274	181.06
496.378	196.06
496.481	237.06
496.584	193.06
496.687	159.06
496.791	233.06
496.894	216.06
496.997	205.06
497.1	250.06
497.204	169.06
497.307	125.06
497.41	378.06
497.513	411.06
497.616	177.06
497.719	189.06
497.823	194.06
497.926	135.06
498.029	183.06
498.132	259.06
498.235	170.06
498.338	220.06
498.441	337.06
498.544	185.06
498.647	204.06
498.75	369.06
498.853	379.06
498.956	203.06
499.059	401.06
499.163	221.06
499.266	208.06
499.369	256.06
499.471	297.06
499.574	316.06
499.677	226.06
499.78	295.06
499.883	259.06
499.986	267.06
500.089	281.06
500.192	277.06
500.295	236.06
500.398	273.06
500.501	316.06
500.604	284.06
500.707	203.06
500.809	299.06
500.912	381.06
501.015	395.06
501.118	325.06
501.221	364.06
501.324	242.06
501.426	291.06
501.529	225.06
501.632	245.06
501.735	166.06
501.837	191.06
501.94	239.06
502.043	163.06
502.146	221.06
502.248	221.06
502.351	161.06
502.454	241.06
502.557	178.06
502.659	238.06
502.762	185.06
502.865	174.06
502.967	136.06
503.07	178.06
503.173	249.06
503.275	208.06
503.378	164.06
503.48	175.06
503.583	268.06
503.686	233.06
503.788	461.06
503.891	179.06
503.993	345.06
504.096	218.06
504.198	180.06
504.301	94.06
504.403	193.06
504.506	188.06
504.608	156.06
504.711	158.06
504.813	291.06
504.916	176.06
505.018	188.06
505.121	181.06
505.223	157.06
505.326	147.06
505.428	277.06
505.531	193.06
505.633	172.06
505.735	121.06
505.838	160.06
505.94	147.06
506.042	80.06
506.145	121.06
506.247	219.06
506.35	128.06
506.452	302.06
506.554	200.06
506.656	187.06
506.759	138.06
506.861	193.06
506.963	136.06
507.066	199.06
507.168	303.06
507.27	146.06
507.372	125.06
507.475	160.06
507.577	138.06
507.679	131.06
507.781	79.06
507.883	153.06
507.986	83.06
508.088	209.06
508.19	178.06
508.292	184.06
508.394	165.06
508.496	133.06
508.598	130.06
508.701	126.06
508.803	172.06
508.905	79.06
509.007	147.06
509.109	278.06
509.211	203.06
509.313	111.06
509.415	107.06
509.517	171.06
509.619	87.06
509.721	183.06
509.823	151.06
509.925	262.06
510.027	151.06
510.129	217.06
510.231	142.06
510.333	84.06
510.435	117.06
510.537	185.06
510.639	183.06
510.741	160.06
510.843	254.06
510.945	151.06
511.047	213.06
511.148	217.06
511.25	106.06
511.352	154.06
511.454	102.06
511.556	189.06
511.658	126.06
511.76	220.06
511.861	260.06
511.963	86.06
512.065	121.06
512.167	128.06
512.268	262.06
512.37	173.06
512.472	161.06
512.574	217.06
512.676	230.06
512.777	159.06
512.879	104.06
512.981	84.06
513.082	194.06
513.184	151.06
513.286	606.06
513.387	258.06
513.489	309.06
513.591	186.06
513.692	248.06
513.794	233.06
513.896	70.06
513.997	95.06
514.099	120.06
514.2	115.06
514.302	180.06
514.404	174.06
514.505	100.06
514.607	147.06
514.708	121.06
514.81	218.06
514.911	201.06
515.013	190.06
515.114	227.06
515.216	164.06
515.317	162.06
515.419	142.06
515.52	146.06
515.622	136.06
515.723	198.06
515.825	256.06
515.926	154.06
516.027	147.06
516.129	124.06
516.23	147.06
516.332	188.06
516.433	193.06
516.534	225.06
516.636	172.06
516.737	181.06
516.838	1158.06
516.94	299.06
517.041	190.06
517.142	288.06
517.244	302.06
517.345	194.06
517.446	242.06
517.547	209.06
517.649	153.06
517.75	180.06
517.851	159.06
517.952	433.06
518.054	262.06
518.155	331.06
518.256	152.06
518.357	341.06
518.458	137.06
518.56	127.06
518.661	190.06
518.762	256.06
518.863	261.06
518.964	238.06
519.065	189.06
519.166	122.06
519.268	130.06
519.369	489.06
519.47	194.06
519.571	197.06
519.672	142.06
519.773	145.06
519.874	176.06
519.975	262.06
520.076	236.06
520.177	253.06
520.278	180.06
520.379	246.06
520.48	109.06
520.581	158.06
520.682	195.06
520.783	145.06
520.884	231.06
520.985	287.06
521.086	185.06
521.187	212.06
521.288	177.06
521.389	233.06
521.489	165.06
521.59	128.06
521.691	246.06
521.792	105.06
521.893	298.06
521.994	366.06
522.095	239.06
522.195	283.06
522.296	337.06
522.397	317.06
522.498	216.06
522.599	150.06
522.699	248.06
522.8	204.06
522.901	266.06
523.002	282.06
523.102	407.06
523.203	258.06
523.304	394.06
523.405	178.06
523.505	203.06
523.606	266.06
523.707	259.06
523.807	220.06
523.908	221.06
524.009	365.06
524.109	210.06
524.21	196.06
524.31	333.06
524.411	353.06
524.512	323.06
524.612	322.06
524.713	396.06
524.813	235.06
524.914	519.06
525.014	6126.06
525.115	765.06
525.216	220.06
525.316	245.06
525.417	251.06
525.517	174.06
525.618	268.06
525.718	177.06
525.819	168.06
525.919	303.06
526.019	149.06
526.12	266.06
526.22	172.06
526.321	171.06
526.421	81.06
526.522	158.06
526.622	199.06
526.722	146.06
526.823	184.06
526.923	268.06
527.023	298.06
527.124	170.06
527.224	294.06
527.324	180.06
527.425	206.06
527.525	143.06
527.625	223.06
527.726	174.06
527.826	289.06
527.926	221.06
528.026	205.06
528.127	158.06
528.227	233.06
528.327	285.06
528.427	242.06
528.528	284.06
528.628	283.06
528.728	246.06
528.828	304.06
528.928	322.06
529.029	207.06
529.129	241.06
529.229	291.06
529.329	252.06
529.429	319.06
529.529	385.06
529.629	269.06
529.729	216.06
529.829	417.06
529.93	196.06
530.03	300.06
530.13	281.06
530.23	270.06
530.33	309.06
530.43	226.06
530.53	299.06
530.63	251.06
530.73	174.06
530.83	154.06
530.93	148.06
531.03	168.06
531.13	300.06
531.23	193.06
531.33	222.06
531.429	335.06
531.529	399.06
531.629	245.06
531.729	130.06
531.829	186.06
531.929	157.06
532.029	213.06
532.129	253.06
532.229	225.06
532.328	189.06
532.428	213.06
532.528	163.06
532.628	147.06
532.728	208.06
532.827	158.06
532.927	275.06
533.027	199.06
533.127	377.06
533.227	237.06
533.326	246.06
533.426	228.06
533.526	335.06
533.625	341.06
533.725	520.06
533.825	333.06
533.924	150.06
534.024	149.06
534.124	179.06
534.223	250.06
534.323	602.06
534.423	302.06
534.522	223.06
534.622	142.06
534.722	216.06
534.821	225.06
534.921	146.06
535.02	158.06
535.12	293.06
535.219	315.06
535.319	308.06
535.419	289.06
535.518	173.06
535.618	213.06
535.717	332.06
535.817	134.06
535.916	92.06
536.016	286.06
536.115	163.06
536.215	188.06
536.314	147.06
536.413	82.06
536.513	162.06
536.612	171.06
536.712	148.06
536.811	143.06
536.91	108.06
537.01	161.06
537.109	190.06
537.209	138.06
537.308	178.06
537.407	161.06
537.507	161.06
537.606	163.06
537.705	266.06
537.805	176.06
537.904	127.06
538.003	238.06
538.102	279.06
538.202	211.06
538.301	296.06
538.4	269.06
538.499	224.06
538.599	281.06
538.698	441.06
538.797	176.06
538.896	288.06
538.995	261.06
539.095	203.06
539.194	451.06
539.293	278.06
539.392	185.06
539.491	238.06
539.59	242.06
539.689	330.06
539.789	282.06
539.888	158.06
539.987	74.06
540.086	188.06
540.185	228.06
540.284	261.06
540.383	179.06
540.482	178.06
540.581	268.06
540.68	186.06
540.779	234.06
540.878	318.06
540.977	269.06
541.076	231.06
541.175	325.06
541.274	467.06
541.373	303.06
541.472	292.06
541.571	218.06
541.67	1543.06
541.769	409.06
541.868	308.06
541.966	324.06
542.065	255.06
542.164	304.06
542.263	217.06
542.362	238.06
542.461	370.06
542.56	269.06
542.658	239.06
542.757	194.06
542.856	165.06
542.955	141.06
543.054	140.06
543.152	393.06
543.251	225.06
543.35	358.06
543.449	305.06
543.547	239.06
543.646	161.06
543.745	298.06
543.843	311.06
543.942	282.06
544.041	246.06
544.14	329.06
544.238	258.06
544.337	465.06
544.436	369.06
544.534	410.06
544.633	315.06
544.731	299.06
544.83	273.06
544.929	267.06
545.027	289.06
545.126	201.06
545.224	332.06
545.323	226.06
545.421	283.06
545.52	238.06
545.619	246.06
545.717	298.06
545.816	312.06
545.914	362.06
546.013	564.06
546.111	438.06
546.209	283.06
546.308	259.06
546.406	241.06
546.505	445.06
546.603	285.06
546.702	212.06
546.8	227.06
546.899	257.06
546.997	363.06
547.095	350.06
547.194	335.06
547.292	325.06
547.39	335.06
547.489	260.06
547.587	602.06
547.685	277.06
547.784	494.06
547.882	333.06
547.98	251.06
548.079	302.06
548.177	266.06
