Data from 35g_HRC06701__55__482.txt Node

Date: Thu Apr 18 02:32:27 CDT 2024
User: Estudiantes 2
Spectrometer: HR+C0670
Trigger mode: 4
Integration Time (sec): 1.000000E0
Scans to average: 1
Electric dark correction enabled: true
Nonlinearity correction enabled: false
Boxcar width: 0
XAxis mode: Wavelengths
Number of Pixels in Spectrum: 2048
>>>>>Begin Spectral Data<<<<<
407.81	-125.38
407.921	-125.38
408.032	-125.38
408.143	-147.38
408.254	-157.38
408.365	75.62
408.476	278.62
408.587	-4.38
408.699	2.62
408.81	17.62
408.921	-85.38
409.032	-51.38
409.143	66.62
409.254	16.62
409.365	85.62
409.476	-2.38
409.587	-20.38
409.698	50.62
409.809	97.62
409.92	-21.38
410.031	-49.38
410.142	74.62
410.253	50.62
410.364	33.62
410.475	1.62
410.585	258.62
410.696	263.62
410.807	191.62
410.918	284.62
411.029	298.62
411.14	271.62
411.251	250.62
411.362	310.62
411.472	332.62
411.583	282.62
411.694	359.62
411.805	229.62
411.916	234.62
412.026	390.62
412.137	250.62
412.248	246.62
412.359	275.62
412.47	219.62
412.58	217.62
412.691	317.62
412.802	279.62
412.912	222.62
413.023	278.62
413.134	303.62
413.245	347.62
413.355	257.62
413.466	274.62
413.577	226.62
413.687	346.62
413.798	269.62
413.909	303.62
414.019	275.62
414.13	298.62
414.24	252.62
414.351	311.62
414.462	445.62
414.572	358.62
414.683	290.62
414.793	242.62
414.904	671.62
415.014	270.62
415.125	209.62
415.235	323.62
415.346	358.62
415.456	409.62
415.567	300.62
415.677	319.62
415.788	332.62
415.898	244.62
416.009	269.62
416.119	266.62
416.23	240.62
416.34	249.62
416.45	284.62
416.561	1042.62
416.671	404.62
416.782	221.62
416.892	217.62
417.002	302.62
417.113	373.62
417.223	318.62
417.333	285.62
417.444	281.62
417.554	299.62
417.664	314.62
417.775	297.62
417.885	297.62
417.995	282.62
418.106	446.62
418.216	383.62
418.326	353.62
418.436	291.62
418.547	308.62
418.657	249.62
418.767	395.62
418.877	338.62
418.987	307.62
419.098	303.62
419.208	325.62
419.318	393.62
419.428	331.62
419.538	322.62
419.648	357.62
419.759	358.62
419.869	402.62
419.979	342.62
420.089	336.62
420.199	285.62
420.309	415.62
420.419	329.62
420.529	344.62
420.639	851.62
420.749	413.62
420.859	406.62
420.969	384.62
421.079	556.62
421.189	448.62
421.299	396.62
421.409	337.62
421.519	437.62
421.629	418.62
421.739	356.62
421.849	277.62
421.959	292.62
422.069	430.62
422.179	304.62
422.289	314.62
422.399	380.62
422.509	435.62
422.619	3887.62
422.729	773.62
422.838	315.62
422.948	362.62
423.058	326.62
423.168	388.62
423.278	360.62
423.388	391.62
423.498	471.62
423.607	414.62
423.717	654.62
423.827	698.62
423.937	435.62
424.046	486.62
424.156	514.62
424.266	468.62
424.376	606.62
424.485	613.62
424.595	449.62
424.705	390.62
424.815	427.62
424.924	873.62
425.034	495.62
425.144	353.62
425.253	452.62
425.363	474.62
425.473	434.62
425.582	353.62
425.692	403.62
425.801	358.62
425.911	545.62
426.021	484.62
426.13	520.62
426.24	649.62
426.349	569.62
426.459	458.62
426.568	353.62
426.678	573.62
426.787	425.62
426.897	391.62
427.006	430.62
427.116	475.62
427.225	425.62
427.335	486.62
427.444	488.62
427.554	514.62
427.663	423.62
427.773	463.62
427.882	477.62
427.992	356.62
428.101	396.62
428.21	420.62
428.32	434.62
428.429	400.62
428.539	739.62
428.648	424.62
428.757	465.62
428.867	519.62
428.976	588.62
429.085	467.62
429.195	444.62
429.304	412.62
429.413	499.62
429.523	509.62
429.632	534.62
429.741	466.62
429.85	420.62
429.96	511.62
430.069	476.62
430.178	419.62
430.287	777.62
430.397	500.62
430.506	453.62
430.615	469.62
430.724	482.62
430.833	509.62
430.943	531.62
431.052	530.62
431.161	437.62
431.27	506.62
431.379	499.62
431.488	638.62
431.597	582.62
431.706	647.62
431.816	505.62
431.925	565.62
432.034	570.62
432.143	627.62
432.252	544.62
432.361	642.62
432.47	557.62
432.579	533.62
432.688	541.62
432.797	594.62
432.906	468.62
433.015	533.62
433.124	1002.62
433.233	585.62
433.342	607.62
433.451	586.62
433.56	521.62
433.669	555.62
433.778	587.62
433.886	602.62
433.995	542.62
434.104	758.62
434.213	679.62
434.322	570.62
434.431	682.62
434.54	723.62
434.649	820.62
434.757	628.62
434.866	662.62
434.975	716.62
435.084	693.62
435.193	673.62
435.301	912.62
435.41	973.62
435.519	1073.62
435.628	657.62
435.737	508.62
435.845	528.62
435.954	531.62
436.063	523.62
436.171	531.62
436.28	571.62
436.389	693.62
436.498	553.62
436.606	575.62
436.715	710.62
436.823	509.62
436.932	500.62
437.041	546.62
437.149	578.62
437.258	503.62
437.367	525.62
437.475	452.62
437.584	747.62
437.692	549.62
437.801	2105.62
437.91	652.62
438.018	462.62
438.127	447.62
438.235	525.62
438.344	415.62
438.452	556.62
438.561	464.62
438.669	459.62
438.778	463.62
438.886	481.62
438.995	451.62
439.103	458.62
439.212	443.62
439.32	442.62
439.428	426.62
439.537	490.62
439.645	530.62
439.754	517.62
439.862	500.62
439.97	533.62
440.079	494.62
440.187	468.62
440.295	579.62
440.404	484.62
440.512	527.62
440.62	572.62
440.729	597.62
440.837	605.62
440.945	1247.62
441.054	627.62
441.162	556.62
441.27	716.62
441.378	558.62
441.487	619.62
441.595	972.62
441.703	725.62
441.811	612.62
441.92	607.62
442.028	521.62
442.136	545.62
442.244	599.62
442.352	641.62
442.461	479.62
442.569	495.62
442.677	564.62
442.785	613.62
442.893	548.62
443.001	554.62
443.109	498.62
443.217	492.62
443.325	543.62
443.434	1050.62
443.542	800.62
443.65	635.62
443.758	777.62
443.866	605.62
443.974	934.62
444.082	711.62
444.19	667.62
444.298	683.62
444.406	805.62
444.514	740.62
444.622	793.62
444.73	797.62
444.838	741.62
444.946	701.62
445.054	623.62
445.161	663.62
445.269	555.62
445.377	611.62
445.485	660.62
445.593	560.62
445.701	821.62
445.809	682.62
445.917	567.62
446.025	508.62
446.132	653.62
446.24	661.62
446.348	585.62
446.456	517.62
446.564	567.62
446.671	545.62
446.779	521.62
446.887	521.62
446.995	526.62
447.102	598.62
447.21	613.62
447.318	528.62
447.426	491.62
447.533	799.62
447.641	1785.62
447.749	636.62
447.856	536.62
447.964	593.62
448.072	651.62
448.179	531.62
448.287	597.62
448.395	547.62
448.502	527.62
448.61	590.62
448.718	491.62
448.825	541.62
448.933	536.62
449.04	476.62
449.148	533.62
449.256	542.62
449.363	566.62
449.471	544.62
449.578	611.62
449.686	519.62
449.793	627.62
449.901	537.62
450.008	597.62
450.116	612.62
450.223	524.62
450.331	624.62
450.438	582.62
450.546	611.62
450.653	671.62
450.76	682.62
450.868	647.62
450.975	805.62
451.083	639.62
451.19	670.62
451.297	614.62
451.405	722.62
451.512	597.62
451.619	748.62
451.727	799.62
451.834	644.62
451.941	634.62
452.049	582.62
452.156	666.62
452.263	649.62
452.371	634.62
452.478	714.62
452.585	772.62
452.692	604.62
452.8	695.62
452.907	789.62
453.014	687.62
453.121	633.62
453.229	738.62
453.336	705.62
453.443	803.62
453.55	683.62
453.657	663.62
453.765	734.62
453.872	746.62
453.979	752.62
454.086	678.62
454.193	746.62
454.3	680.62
454.407	856.62
454.514	832.62
454.621	670.62
454.729	638.62
454.836	690.62
454.943	725.62
455.05	794.62
455.157	837.62
455.264	718.62
455.371	705.62
455.478	672.62
455.585	961.62
455.692	798.62
455.799	845.62
455.906	727.62
456.013	681.62
456.12	685.62
456.227	675.62
456.334	778.62
456.44	854.62
456.547	763.62
456.654	769.62
456.761	716.62
456.868	829.62
456.975	844.62
457.082	736.62
457.189	719.62
457.296	736.62
457.402	762.62
457.509	699.62
457.616	798.62
457.723	1038.62
457.83	754.62
457.936	725.62
458.043	1119.62
458.15	810.62
458.257	877.62
458.363	869.62
458.47	869.62
458.577	937.62
458.684	846.62
458.79	1010.62
458.897	951.62
459.004	1047.62
459.11	971.62
459.217	978.62
459.324	1073.62
459.43	1193.62
459.537	1328.62
459.644	1109.62
459.75	1120.62
459.857	1507.62
459.964	1193.62
460.07	1268.62
460.177	1206.62
460.283	1277.62
460.39	1395.62
460.496	1297.62
460.603	1314.62
460.71	1246.62
460.816	1242.62
460.923	1130.62
461.029	1228.62
461.136	1322.62
461.242	1244.62
461.349	1191.62
461.455	1180.62
461.562	1605.62
461.668	1350.62
461.774	1292.62
461.881	1424.62
461.987	1324.62
462.094	1359.62
462.2	1431.62
462.307	1404.62
462.413	1387.62
462.519	1393.62
462.626	1644.62
462.732	1562.62
462.838	1739.62
462.945	1860.62
463.051	1810.62
463.157	1655.62
463.264	1653.62
463.37	1513.62
463.476	1460.62
463.583	1492.62
463.689	1394.62
463.795	1409.62
463.901	1586.62
464.008	1635.62
464.114	1498.62
464.22	1457.62
464.326	1503.62
464.433	1305.62
464.539	1332.62
464.645	1380.62
464.751	1562.62
464.857	1283.62
464.963	1138.62
465.07	1221.62
465.176	1174.62
465.282	1113.62
465.388	1157.62
465.494	969.62
465.6	1029.62
465.706	929.62
465.812	841.62
465.918	973.62
466.024	969.62
466.131	924.62
466.237	867.62
466.343	838.62
466.449	776.62
466.555	747.62
466.661	817.62
466.767	757.62
466.873	786.62
466.979	971.62
467.085	860.62
467.191	871.62
467.296	770.62
467.402	827.62
467.508	833.62
467.614	933.62
467.72	811.62
467.826	772.62
467.932	777.62
468.038	776.62
468.144	788.62
468.25	708.62
468.355	677.62
468.461	784.62
468.567	638.62
468.673	718.62
468.779	790.62
468.885	693.62
468.99	692.62
469.096	741.62
469.202	849.62
469.308	782.62
469.413	783.62
469.519	774.62
469.625	731.62
469.731	833.62
469.836	797.62
469.942	920.62
470.048	780.62
470.153	828.62
470.259	797.62
470.365	868.62
470.47	855.62
470.576	756.62
470.682	769.62
470.787	749.62
470.893	702.62
470.999	752.62
471.104	805.62
471.21	707.62
471.315	621.62
471.421	682.62
471.527	961.62
471.632	736.62
471.738	710.62
471.843	652.62
471.949	709.62
472.054	681.62
472.16	654.62
472.265	650.62
472.371	554.62
472.476	651.62
472.582	754.62
472.687	606.62
472.793	572.62
472.898	628.62
473.003	555.62
473.109	545.62
473.214	582.62
473.32	549.62
473.425	652.62
473.53	631.62
473.636	579.62
473.741	561.62
473.847	527.62
473.952	649.62
474.057	624.62
474.163	698.62
474.268	586.62
474.373	659.62
474.478	535.62
474.584	592.62
474.689	682.62
474.794	604.62
474.9	910.62
475.005	564.62
475.11	726.62
475.215	556.62
475.321	614.62
475.426	724.62
475.531	728.62
475.636	623.62
475.741	547.62
475.846	694.62
475.952	845.62
476.057	669.62
476.162	692.62
476.267	774.62
476.372	985.62
476.477	626.62
476.582	729.62
476.687	657.62
476.793	610.62
476.898	618.62
477.003	733.62
477.108	641.62
477.213	631.62
477.318	677.62
477.423	739.62
477.528	771.62
477.633	801.62
477.738	778.62
477.843	672.62
477.948	764.62
478.053	735.62
478.158	718.62
478.263	795.62
478.368	819.62
478.473	841.62
478.578	786.62
478.682	750.62
478.787	836.62
478.892	800.62
478.997	862.62
479.102	789.62
479.207	751.62
479.312	858.62
479.417	868.62
479.521	775.62
479.626	861.62
479.731	862.62
479.836	820.62
479.941	1006.62
480.045	980.62
480.15	964.62
480.255	885.62
480.36	796.62
480.465	923.62
480.569	1049.62
480.674	828.62
480.779	780.62
480.883	762.62
480.988	865.62
481.093	842.62
481.197	825.62
481.302	774.62
481.407	886.62
481.511	2732.62
481.616	992.62
481.721	845.62
481.825	1017.62
481.93	729.62
482.035	810.62
482.139	899.62
482.244	840.62
482.348	815.62
482.453	857.62
482.557	837.62
482.662	825.62
482.767	818.62
482.871	797.62
482.976	809.62
483.08	822.62
483.185	1040.62
483.289	765.62
483.394	837.62
483.498	920.62
483.603	839.62
483.707	910.62
483.811	975.62
483.916	980.62
484.02	881.62
484.125	1053.62
484.229	949.62
484.333	983.62
484.438	923.62
484.542	959.62
484.647	864.62
484.751	936.62
484.855	949.62
484.96	930.62
485.064	1008.62
485.168	1017.62
485.273	945.62
485.377	971.62
485.481	1247.62
485.585	1006.62
485.69	1006.62
485.794	1090.62
485.898	1097.62
486.002	987.62
486.107	1119.62
486.211	1099.62
486.315	1068.62
486.419	1131.62
486.524	1102.62
486.628	1002.62
486.732	990.62
486.836	1057.62
486.94	1141.62
487.044	1034.62
487.148	1029.62
487.253	1020.62
487.357	1030.62
487.461	1169.62
487.565	1110.62
487.669	980.62
487.773	1007.62
487.877	1178.62
487.981	1077.62
488.085	1068.62
488.189	1110.62
488.293	1190.62
488.397	1533.62
488.501	1109.62
488.605	1032.62
488.709	1031.62
488.813	1032.62
488.917	1027.62
489.021	1007.62
489.125	1283.62
489.229	1088.62
489.333	1161.62
489.437	1130.62
489.541	1099.62
489.645	1002.62
489.749	1054.62
489.853	1133.62
489.956	1047.62
490.06	1063.62
490.164	1064.62
490.268	1046.62
490.372	1077.62
490.476	986.62
490.579	1069.62
490.683	1725.62
490.787	1161.62
490.891	1047.62
490.995	1075.62
491.098	1050.62
491.202	1048.62
491.306	1162.62
491.41	1063.62
491.513	1044.62
491.617	1099.62
491.721	1133.62
491.824	1242.62
491.928	1133.62
492.032	1275.62
492.136	1052.62
492.239	1007.62
492.343	1085.62
492.446	1455.62
492.55	1103.62
492.654	1072.62
492.757	1010.62
492.861	1145.62
492.965	1119.62
493.068	1060.62
493.172	1048.62
493.275	1097.62
493.379	1045.62
493.482	1179.62
493.586	1232.62
493.689	1317.62
493.793	1015.62
493.896	1231.62
494	1194.62
494.103	1108.62
494.207	1377.62
494.31	1569.62
494.414	1144.62
494.517	1081.62
494.621	1073.62
494.724	1070.62
494.828	1040.62
494.931	1083.62
495.034	1035.62
495.138	1215.62
495.241	1010.62
495.345	1927.62
495.448	1222.62
495.551	1055.62
495.655	1075.62
495.758	1009.62
495.861	1041.62
495.965	1134.62
496.068	1083.62
496.171	1132.62
496.274	1054.62
496.378	1078.62
496.481	1071.62
496.584	1071.62
496.687	1154.62
496.791	1147.62
496.894	1174.62
496.997	1112.62
497.1	1135.62
497.204	1178.62
497.307	1116.62
497.41	1326.62
497.513	1344.62
497.616	1201.62
497.719	1213.62
497.823	1190.62
497.926	1213.62
498.029	1358.62
498.132	1286.62
498.235	1331.62
498.338	1504.62
498.441	1551.62
498.544	1474.62
498.647	1637.62
498.75	1729.62
498.853	1859.62
498.956	1830.62
499.059	2070.62
499.163	1893.62
499.266	2014.62
499.369	2198.62
499.471	2260.62
499.574	2506.62
499.677	2618.62
499.78	2692.62
499.883	3042.62
499.986	3378.62
500.089	3404.62
500.192	3515.62
500.295	3517.62
500.398	3338.62
500.501	3358.62
500.604	3046.62
500.707	2894.62
500.809	2794.62
500.912	2731.62
501.015	2649.62
501.118	2266.62
501.221	2215.62
501.324	2041.62
501.426	1854.62
501.529	1736.62
501.632	1736.62
501.735	1622.62
501.837	1493.62
501.94	1468.62
502.043	1410.62
502.146	1434.62
502.248	1391.62
502.351	1329.62
502.454	1312.62
502.557	1256.62
502.659	1258.62
502.762	1134.62
502.865	1128.62
502.967	1178.62
503.07	1113.62
503.173	1134.62
503.275	1064.62
503.378	1080.62
503.48	1006.62
503.583	1142.62
503.686	1072.62
503.788	1325.62
503.891	1067.62
503.993	1287.62
504.096	1058.62
504.198	1050.62
504.301	1125.62
504.403	1163.62
504.506	1098.62
504.608	1043.62
504.711	1029.62
504.813	1017.62
504.916	942.62
505.018	950.62
505.121	813.62
505.223	906.62
505.326	876.62
505.428	987.62
505.531	833.62
505.633	851.62
505.735	785.62
505.838	761.62
505.94	803.62
506.042	778.62
506.145	701.62
506.247	814.62
506.35	725.62
506.452	806.62
506.554	801.62
506.656	825.62
506.759	730.62
506.861	783.62
506.963	786.62
507.066	772.62
507.168	813.62
507.27	704.62
507.372	753.62
507.475	692.62
507.577	789.62
507.679	735.62
507.781	648.62
507.883	732.62
507.986	680.62
508.088	702.62
508.19	653.62
508.292	753.62
508.394	684.62
508.496	622.62
508.598	645.62
508.701	656.62
508.803	692.62
508.905	618.62
509.007	686.62
509.109	746.62
509.211	714.62
509.313	712.62
509.415	641.62
509.517	701.62
509.619	650.62
509.721	731.62
509.823	650.62
509.925	838.62
510.027	693.62
510.129	716.62
510.231	728.62
510.333	705.62
510.435	573.62
510.537	718.62
510.639	740.62
510.741	635.62
510.843	692.62
510.945	696.62
511.047	780.62
511.148	701.62
511.25	657.62
511.352	761.62
511.454	611.62
511.556	691.62
511.658	702.62
511.76	748.62
511.861	819.62
511.963	689.62
512.065	628.62
512.167	589.62
512.268	854.62
512.37	749.62
512.472	630.62
512.574	758.62
512.676	754.62
512.777	640.62
512.879	606.62
512.981	673.62
513.082	651.62
513.184	688.62
513.286	1168.62
513.387	782.62
513.489	850.62
513.591	740.62
513.692	806.62
513.794	701.62
513.896	620.62
513.997	701.62
514.099	635.62
514.2	704.62
514.302	752.62
514.404	676.62
514.505	669.62
514.607	747.62
514.708	745.62
514.81	722.62
514.911	762.62
515.013	877.62
515.114	740.62
515.216	707.62
515.317	792.62
515.419	704.62
515.52	804.62
515.622	825.62
515.723	786.62
515.825	906.62
515.926	866.62
516.027	786.62
516.129	768.62
516.23	831.62
516.332	938.62
516.433	873.62
516.534	960.62
516.636	958.62
516.737	926.62
516.838	2014.62
516.94	1225.62
517.041	1065.62
517.142	1165.62
517.244	1259.62
517.345	1153.62
517.446	1181.62
517.547	1205.62
517.649	1182.62
517.75	1138.62
517.851	1141.62
517.952	1484.62
518.054	1155.62
518.155	1247.62
518.256	1091.62
518.357	1191.62
518.458	959.62
518.56	948.62
518.661	993.62
518.762	918.62
518.863	1105.62
518.964	1091.62
519.065	874.62
519.166	877.62
519.268	895.62
519.369	1098.62
519.47	860.62
519.571	892.62
519.672	810.62
519.773	791.62
519.874	877.62
519.975	892.62
520.076	825.62
520.177	934.62
520.278	853.62
520.379	865.62
520.48	735.62
520.581	782.62
520.682	763.62
520.783	785.62
520.884	817.62
520.985	857.62
521.086	817.62
521.187	852.62
521.288	832.62
521.389	842.62
521.489	796.62
521.59	759.62
521.691	768.62
521.792	771.62
521.893	926.62
521.994	966.62
522.095	829.62
522.195	883.62
522.296	968.62
522.397	866.62
522.498	848.62
522.599	747.62
522.699	816.62
522.8	827.62
522.901	911.62
523.002	808.62
523.102	977.62
523.203	900.62
523.304	945.62
523.405	771.62
523.505	829.62
523.606	848.62
523.707	833.62
523.807	826.62
523.908	868.62
524.009	877.62
524.109	850.62
524.21	804.62
524.31	865.62
524.411	917.62
524.512	979.62
524.612	842.62
524.713	987.62
524.813	835.62
524.914	1093.62
525.014	5796.62
525.115	1299.62
525.216	821.62
525.316	821.62
525.417	841.62
525.517	818.62
525.618	805.62
525.718	756.62
525.819	811.62
525.919	845.62
526.019	790.62
526.12	917.62
526.22	798.62
526.321	802.62
526.421	750.62
526.522	839.62
526.622	731.62
526.722	793.62
526.823	888.62
526.923	842.62
527.023	902.62
527.124	867.62
527.224	895.62
527.324	770.62
527.425	880.62
527.525	793.62
527.625	763.62
527.726	816.62
527.826	934.62
527.926	807.62
528.026	855.62
528.127	855.62
528.227	766.62
528.327	921.62
528.427	878.62
528.528	852.62
528.628	866.62
528.728	858.62
528.828	929.62
528.928	896.62
529.029	809.62
529.129	898.62
529.229	877.62
529.329	870.62
529.429	944.62
529.529	941.62
529.629	919.62
529.729	916.62
529.829	1034.62
529.93	820.62
530.03	920.62
530.13	892.62
530.23	823.62
530.33	945.62
530.43	865.62
530.53	835.62
530.63	872.62
530.73	820.62
530.83	733.62
530.93	803.62
531.03	839.62
531.13	931.62
531.23	770.62
531.33	889.62
531.429	956.62
531.529	1033.62
531.629	912.62
531.729	782.62
531.829	796.62
531.929	824.62
532.029	894.62
532.129	829.62
532.229	890.62
532.328	857.62
532.428	819.62
532.528	750.62
532.628	781.62
532.728	864.62
532.827	715.62
532.927	853.62
533.027	825.62
533.127	920.62
533.227	850.62
533.326	859.62
533.426	733.62
533.526	910.62
533.625	994.62
533.725	1074.62
533.825	908.62
533.924	748.62
534.024	731.62
534.124	719.62
534.223	859.62
534.323	1218.62
534.423	835.62
534.522	799.62
534.622	764.62
534.722	760.62
534.821	801.62
534.921	772.62
535.02	666.62
535.12	790.62
535.219	877.62
535.319	854.62
535.419	794.62
535.518	756.62
535.618	828.62
535.717	843.62
535.817	678.62
535.916	650.62
536.016	756.62
536.115	718.62
536.215	750.62
536.314	667.62
536.413	611.62
536.513	708.62
536.612	695.62
536.712	655.62
536.811	681.62
536.91	641.62
537.01	634.62
537.109	692.62
537.209	692.62
537.308	667.62
537.407	667.62
537.507	683.62
537.606	634.62
537.705	751.62
537.805	724.62
537.904	640.62
538.003	684.62
538.102	784.62
538.202	702.62
538.301	700.62
538.4	730.62
538.499	738.62
538.599	713.62
538.698	845.62
538.797	707.62
538.896	752.62
538.995	668.62
539.095	604.62
539.194	867.62
539.293	642.62
539.392	647.62
539.491	712.62
539.59	672.62
539.689	765.62
539.789	836.62
539.888	567.62
539.987	572.62
540.086	690.62
540.185	654.62
540.284	663.62
540.383	660.62
540.482	648.62
540.581	653.62
540.68	599.62
540.779	729.62
540.878	616.62
540.977	764.62
541.076	728.62
541.175	697.62
541.274	865.62
541.373	773.62
541.472	673.62
541.571	576.62
541.67	1980.62
541.769	858.62
541.868	697.62
541.966	715.62
542.065	710.62
542.164	683.62
542.263	643.62
542.362	694.62
542.461	731.62
542.56	705.62
542.658	740.62
542.757	613.62
542.856	604.62
542.955	598.62
543.054	627.62
543.152	749.62
543.251	655.62
543.35	866.62
543.449	685.62
543.547	674.62
543.646	633.62
543.745	644.62
543.843	756.62
543.942	755.62
544.041	629.62
