Data from 35g_HRC06701__46__473.txt Node

Date: Thu Apr 18 02:32:18 CDT 2024
User: Estudiantes 2
Spectrometer: HR+C0670
Trigger mode: 4
Integration Time (sec): 1.000000E0
Scans to average: 1
Electric dark correction enabled: true
Nonlinearity correction enabled: false
Boxcar width: 0
XAxis mode: Wavelengths
Number of Pixels in Spectrum: 2048
>>>>>Begin Spectral Data<<<<<
407.81	-156.94
407.921	-156.94
408.032	-156.94
408.143	-134.94
408.254	-119.94
408.365	15.06
408.476	263.06
408.587	-9.94
408.699	32.06
408.81	-25.94
408.921	-27.94
409.032	-22.94
409.143	28.06
409.254	0.06
409.365	126.06
409.476	-43.94
409.587	-14.94
409.698	93.06
409.809	126.06
409.92	-29.94
410.031	4.06
410.142	130.06
410.253	-21.94
410.364	64.06
410.475	9.06
410.585	105.06
410.696	128.06
410.807	181.06
410.918	113.06
411.029	157.06
411.14	164.06
411.251	101.06
411.362	197.06
411.472	193.06
411.583	210.06
411.694	207.06
411.805	139.06
411.916	160.06
412.026	226.06
412.137	153.06
412.248	205.06
412.359	145.06
412.47	94.06
412.58	150.06
412.691	165.06
412.802	103.06
412.912	167.06
413.023	172.06
413.134	119.06
413.245	204.06
413.355	196.06
413.466	107.06
413.577	147.06
413.687	266.06
413.798	75.06
413.909	158.06
414.019	160.06
414.13	167.06
414.24	73.06
414.351	182.06
414.462	349.06
414.572	202.06
414.683	206.06
414.793	174.06
414.904	486.06
415.014	180.06
415.125	145.06
415.235	188.06
415.346	271.06
415.456	310.06
415.567	165.06
415.677	159.06
415.788	241.06
415.898	204.06
416.009	149.06
416.119	159.06
416.23	147.06
416.34	89.06
416.45	155.06
416.561	943.06
416.671	294.06
416.782	61.06
416.892	107.06
417.002	223.06
417.113	200.06
417.223	185.06
417.333	156.06
417.444	121.06
417.554	182.06
417.664	239.06
417.775	66.06
417.885	173.06
417.995	194.06
418.106	257.06
418.216	159.06
418.326	197.06
418.436	191.06
418.547	117.06
418.657	158.06
418.767	284.06
418.877	134.06
418.987	123.06
419.098	201.06
419.208	139.06
419.318	225.06
419.428	210.06
419.538	127.06
419.648	196.06
419.759	221.06
419.869	265.06
419.979	145.06
420.089	195.06
420.199	179.06
420.309	173.06
420.419	220.06
420.529	211.06
420.639	601.06
420.749	241.06
420.859	276.06
420.969	214.06
421.079	425.06
421.189	275.06
421.299	279.06
421.409	127.06
421.519	269.06
421.629	318.06
421.739	180.06
421.849	152.06
421.959	178.06
422.069	150.06
422.179	147.06
422.289	173.06
422.399	154.06
422.509	243.06
422.619	2846.06
422.729	483.06
422.838	152.06
422.948	195.06
423.058	200.06
423.168	191.06
423.278	151.06
423.388	300.06
423.498	236.06
423.607	201.06
423.717	496.06
423.827	522.06
423.937	222.06
424.046	302.06
424.156	313.06
424.266	178.06
424.376	466.06
424.485	442.06
424.595	206.06
424.705	196.06
424.815	290.06
424.924	633.06
425.034	296.06
425.144	168.06
425.253	233.06
425.363	267.06
425.473	296.06
425.582	174.06
425.692	112.06
425.801	144.06
425.911	397.06
426.021	253.06
426.13	346.06
426.24	473.06
426.349	330.06
426.459	238.06
426.568	214.06
426.678	345.06
426.787	239.06
426.897	188.06
427.006	237.06
427.116	243.06
427.225	220.06
427.335	342.06
427.444	220.06
427.554	291.06
427.663	270.06
427.773	213.06
427.882	250.06
427.992	211.06
428.101	237.06
428.21	196.06
428.32	269.06
428.429	241.06
428.539	480.06
428.648	230.06
428.757	325.06
428.867	258.06
428.976	360.06
429.085	289.06
429.195	202.06
429.304	231.06
429.413	319.06
429.523	317.06
429.632	266.06
429.741	274.06
429.85	241.06
429.96	248.06
430.069	272.06
430.178	288.06
430.287	500.06
430.397	292.06
430.506	291.06
430.615	216.06
430.724	278.06
430.833	306.06
430.943	294.06
431.052	260.06
431.161	215.06
431.27	300.06
431.379	237.06
431.488	368.06
431.597	393.06
431.706	400.06
431.816	258.06
431.925	333.06
432.034	278.06
432.143	319.06
432.252	300.06
432.361	435.06
432.47	295.06
432.579	274.06
432.688	300.06
432.797	317.06
432.906	254.06
433.015	346.06
433.124	705.06
433.233	336.06
433.342	403.06
433.451	302.06
433.56	278.06
433.669	309.06
433.778	310.06
433.886	351.06
433.995	294.06
434.104	517.06
434.213	311.06
434.322	301.06
434.431	456.06
434.54	342.06
434.649	494.06
434.757	391.06
434.866	344.06
434.975	408.06
435.084	456.06
435.193	466.06
435.301	575.06
435.41	743.06
435.519	878.06
435.628	360.06
435.737	263.06
435.845	300.06
435.954	257.06
436.063	332.06
436.171	335.06
436.28	301.06
436.389	392.06
436.498	313.06
436.606	324.06
436.715	469.06
436.823	247.06
436.932	339.06
437.041	284.06
437.149	348.06
437.258	310.06
437.367	241.06
437.475	248.06
437.584	525.06
437.692	292.06
437.801	1824.06
437.91	443.06
438.018	289.06
438.127	253.06
438.235	342.06
438.344	287.06
438.452	299.06
438.561	210.06
438.669	296.06
438.778	250.06
438.886	269.06
438.995	241.06
439.103	253.06
439.212	262.06
439.32	280.06
439.428	273.06
439.537	242.06
439.645	370.06
439.754	356.06
439.862	244.06
439.97	301.06
440.079	283.06
440.187	206.06
440.295	393.06
440.404	303.06
440.512	328.06
440.62	286.06
440.729	353.06
440.837	401.06
440.945	970.06
441.054	428.06
441.162	354.06
441.27	368.06
441.378	296.06
441.487	325.06
441.595	654.06
441.703	399.06
441.811	377.06
441.92	308.06
442.028	266.06
442.136	350.06
442.244	366.06
442.352	332.06
442.461	247.06
442.569	311.06
442.677	271.06
442.785	345.06
442.893	392.06
443.001	270.06
443.109	246.06
443.217	242.06
443.325	247.06
443.434	786.06
443.542	567.06
443.65	344.06
443.758	453.06
443.866	333.06
443.974	669.06
444.082	396.06
444.19	358.06
444.298	416.06
444.406	416.06
444.514	352.06
444.622	429.06
444.73	414.06
444.838	363.06
444.946	424.06
445.054	352.06
445.161	300.06
445.269	277.06
445.377	365.06
445.485	354.06
445.593	327.06
445.701	592.06
445.809	414.06
445.917	328.06
446.025	295.06
446.132	408.06
446.24	414.06
446.348	336.06
446.456	299.06
446.564	279.06
446.671	328.06
446.779	355.06
446.887	286.06
446.995	300.06
447.102	375.06
447.21	362.06
447.318	298.06
447.426	274.06
447.533	528.06
447.641	1557.06
447.749	496.06
447.856	339.06
447.964	295.06
448.072	420.06
448.179	336.06
448.287	284.06
448.395	352.06
448.502	306.06
448.61	296.06
448.718	264.06
448.825	359.06
448.933	350.06
449.04	258.06
449.148	341.06
449.256	330.06
449.363	297.06
449.471	330.06
449.578	433.06
449.686	255.06
449.793	415.06
449.901	338.06
450.008	331.06
450.116	357.06
450.223	296.06
450.331	376.06
450.438	354.06
450.546	352.06
450.653	425.06
450.76	374.06
450.868	393.06
450.975	576.06
451.083	340.06
451.19	442.06
451.297	395.06
451.405	375.06
451.512	329.06
451.619	506.06
451.727	520.06
451.834	373.06
451.941	365.06
452.049	394.06
452.156	336.06
452.263	365.06
452.371	408.06
452.478	400.06
452.585	511.06
452.692	365.06
452.8	415.06
452.907	503.06
453.014	421.06
453.121	380.06
453.229	451.06
453.336	448.06
453.443	554.06
453.55	356.06
453.657	425.06
453.765	523.06
453.872	421.06
453.979	447.06
454.086	439.06
454.193	442.06
454.3	368.06
454.407	548.06
454.514	576.06
454.621	397.06
454.729	384.06
454.836	466.06
454.943	422.06
455.05	465.06
455.157	568.06
455.264	376.06
455.371	453.06
455.478	408.06
455.585	629.06
455.692	487.06
455.799	572.06
455.906	447.06
456.013	374.06
456.12	354.06
456.227	478.06
456.334	440.06
456.44	530.06
456.547	499.06
456.654	409.06
456.761	448.06
456.868	557.06
456.975	521.06
457.082	423.06
457.189	399.06
457.296	482.06
457.402	393.06
457.509	399.06
457.616	530.06
457.723	594.06
457.83	503.06
457.936	448.06
458.043	717.06
458.15	480.06
458.257	546.06
458.363	508.06
458.47	478.06
458.577	601.06
458.684	486.06
458.79	591.06
458.897	581.06
459.004	639.06
459.11	539.06
459.217	589.06
459.324	656.06
459.43	703.06
459.537	862.06
459.644	624.06
459.75	580.06
459.857	995.06
459.964	686.06
460.07	752.06
460.177	670.06
460.283	741.06
460.39	907.06
460.496	721.06
460.603	732.06
460.71	736.06
460.816	632.06
460.923	621.06
461.029	755.06
461.136	696.06
461.242	661.06
461.349	660.06
461.455	628.06
461.562	985.06
461.668	750.06
461.774	775.06
461.881	821.06
461.987	746.06
462.094	802.06
462.2	789.06
462.307	820.06
462.413	783.06
462.519	769.06
462.626	913.06
462.732	880.06
462.838	966.06
462.945	1033.06
463.051	963.06
463.157	887.06
463.264	824.06
463.37	849.06
463.476	864.06
463.583	864.06
463.689	766.06
463.795	841.06
463.901	886.06
464.008	932.06
464.114	787.06
464.22	809.06
464.326	812.06
464.433	757.06
464.539	791.06
464.645	737.06
464.751	947.06
464.857	762.06
464.963	630.06
465.07	711.06
465.176	738.06
465.282	641.06
465.388	725.06
465.494	528.06
465.6	620.06
465.706	515.06
465.812	468.06
465.918	670.06
466.024	494.06
466.131	585.06
466.237	563.06
466.343	416.06
466.449	425.06
466.555	461.06
466.661	469.06
466.767	413.06
466.873	487.06
466.979	658.06
467.085	521.06
467.191	489.06
467.296	501.06
467.402	413.06
467.508	489.06
467.614	617.06
467.72	440.06
467.826	432.06
467.932	479.06
468.038	428.06
468.144	404.06
468.25	420.06
468.355	395.06
468.461	410.06
468.567	390.06
468.673	474.06
468.779	423.06
468.885	403.06
468.99	410.06
469.096	387.06
469.202	521.06
469.308	494.06
469.413	564.06
469.519	453.06
469.625	428.06
469.731	496.06
469.836	434.06
469.942	617.06
470.048	522.06
470.153	460.06
470.259	487.06
470.365	545.06
470.47	491.06
470.576	426.06
470.682	454.06
470.787	474.06
470.893	407.06
470.999	454.06
471.104	543.06
471.21	381.06
471.315	338.06
471.421	407.06
471.527	557.06
471.632	461.06
471.738	486.06
471.843	358.06
471.949	407.06
472.054	461.06
472.16	356.06
472.265	399.06
472.371	348.06
472.476	458.06
472.582	449.06
472.687	373.06
472.793	333.06
472.898	371.06
473.003	347.06
473.109	359.06
473.214	320.06
473.32	301.06
473.425	434.06
473.53	390.06
473.636	346.06
473.741	296.06
473.847	377.06
473.952	361.06
474.057	402.06
474.163	459.06
474.268	316.06
474.373	421.06
474.478	312.06
474.584	289.06
474.689	346.06
474.794	380.06
474.9	658.06
475.005	351.06
475.11	510.06
475.215	396.06
475.321	384.06
475.426	530.06
475.531	522.06
475.636	307.06
475.741	317.06
475.846	466.06
475.952	562.06
476.057	448.06
476.162	454.06
476.267	570.06
476.372	663.06
476.477	402.06
476.582	518.06
476.687	357.06
476.793	377.06
476.898	404.06
477.003	398.06
477.108	392.06
477.213	370.06
477.318	404.06
477.423	461.06
477.528	525.06
477.633	546.06
477.738	465.06
477.843	412.06
477.948	464.06
478.053	365.06
478.158	409.06
478.263	526.06
478.368	423.06
478.473	461.06
478.578	513.06
478.682	421.06
478.787	481.06
478.892	459.06
478.997	559.06
479.102	458.06
479.207	428.06
479.312	610.06
479.417	444.06
479.521	404.06
479.626	553.06
479.731	452.06
479.836	463.06
479.941	625.06
480.045	619.06
480.15	515.06
480.255	504.06
480.36	475.06
480.465	479.06
480.569	663.06
480.674	554.06
480.779	396.06
480.883	449.06
480.988	534.06
481.093	486.06
481.197	490.06
481.302	489.06
481.407	492.06
481.511	2358.06
481.616	646.06
481.721	551.06
481.825	651.06
481.93	479.06
482.035	464.06
482.139	498.06
482.244	499.06
482.348	454.06
482.453	479.06
482.557	542.06
482.662	519.06
482.767	465.06
482.871	423.06
482.976	462.06
483.08	526.06
483.185	632.06
483.289	439.06
483.394	531.06
483.498	498.06
483.603	460.06
483.707	554.06
483.811	522.06
483.916	551.06
484.02	512.06
484.125	626.06
484.229	531.06
484.333	633.06
484.438	539.06
484.542	549.06
484.647	485.06
484.751	528.06
484.855	495.06
484.96	513.06
485.064	594.06
485.168	564.06
485.273	550.06
485.377	546.06
485.481	800.06
485.585	562.06
485.69	540.06
485.794	646.06
485.898	573.06
486.002	531.06
486.107	626.06
486.211	547.06
486.315	577.06
486.419	642.06
486.524	602.06
486.628	518.06
486.732	552.06
486.836	641.06
486.94	649.06
487.044	624.06
487.148	608.06
487.253	502.06
487.357	592.06
487.461	789.06
487.565	599.06
487.669	569.06
487.773	560.06
487.877	642.06
487.981	603.06
488.085	624.06
488.189	637.06
488.293	706.06
488.397	1094.06
488.501	693.06
488.605	558.06
488.709	579.06
488.813	641.06
488.917	525.06
489.021	575.06
489.125	881.06
489.229	606.06
489.333	723.06
489.437	660.06
489.541	645.06
489.645	540.06
489.749	608.06
489.853	732.06
489.956	581.06
490.06	615.06
490.164	666.06
490.268	576.06
490.372	643.06
490.476	602.06
490.579	616.06
490.683	1236.06
490.787	756.06
490.891	651.06
490.995	621.06
491.098	642.06
491.202	617.06
491.306	641.06
491.41	661.06
491.513	624.06
491.617	592.06
491.721	790.06
491.824	860.06
491.928	635.06
492.032	881.06
492.136	678.06
492.239	619.06
492.343	640.06
492.446	1008.06
492.55	753.06
492.654	567.06
492.757	604.06
492.861	733.06
492.965	641.06
493.068	613.06
493.172	644.06
493.275	616.06
493.379	616.06
493.482	752.06
493.586	783.06
493.689	864.06
493.793	633.06
493.896	780.06
494	713.06
494.103	743.06
494.207	997.06
494.31	1020.06
494.414	720.06
494.517	742.06
494.621	631.06
494.724	639.06
494.828	631.06
494.931	641.06
495.034	565.06
495.138	760.06
495.241	668.06
495.345	1398.06
495.448	798.06
495.551	666.06
495.655	620.06
495.758	588.06
495.861	611.06
495.965	564.06
496.068	638.06
496.171	688.06
496.274	656.06
496.378	630.06
496.481	660.06
496.584	670.06
496.687	652.06
496.791	675.06
496.894	757.06
496.997	625.06
497.1	736.06
497.204	746.06
497.307	666.06
497.41	829.06
497.513	903.06
497.616	723.06
497.719	665.06
497.823	706.06
497.926	777.06
498.029	731.06
498.132	783.06
498.235	836.06
498.338	847.06
498.441	944.06
498.544	866.06
498.647	881.06
498.75	1041.06
498.853	1097.06
498.956	1061.06
499.059	1214.06
499.163	1067.06
499.266	1196.06
499.369	1168.06
499.471	1231.06
499.574	1414.06
499.677	1392.06
499.78	1502.06
499.883	1533.06
499.986	1712.06
500.089	1706.06
500.192	1741.06
500.295	1804.06
500.398	1711.06
500.501	1719.06
500.604	1619.06
500.707	1457.06
500.809	1495.06
500.912	1534.06
501.015	1419.06
501.118	1252.06
501.221	1255.06
501.324	1151.06
501.426	1033.06
501.529	1014.06
501.632	972.06
501.735	834.06
501.837	833.06
501.94	896.06
502.043	783.06
502.146	819.06
502.248	889.06
502.351	737.06
502.454	777.06
502.557	709.06
502.659	735.06
502.762	629.06
502.865	641.06
502.967	670.06
503.07	673.06
503.173	680.06
503.275	692.06
503.378	619.06
503.48	555.06
503.583	691.06
503.686	692.06
503.788	907.06
503.891	674.06
503.993	824.06
504.096	590.06
504.198	661.06
504.301	606.06
504.403	626.06
504.506	608.06
504.608	644.06
504.711	563.06
504.813	631.06
504.916	637.06
505.018	567.06
505.121	447.06
505.223	583.06
505.326	535.06
505.428	606.06
505.531	565.06
505.633	552.06
505.735	473.06
505.838	482.06
505.94	540.06
506.042	421.06
506.145	393.06
506.247	608.06
506.35	430.06
506.452	492.06
506.554	542.06
506.656	481.06
506.759	450.06
506.861	486.06
506.963	513.06
507.066	482.06
507.168	569.06
507.27	486.06
507.372	414.06
507.475	402.06
507.577	480.06
507.679	437.06
507.781	393.06
507.883	496.06
507.986	446.06
508.088	436.06
508.19	460.06
508.292	515.06
508.394	425.06
508.496	368.06
508.598	427.06
508.701	393.06
508.803	435.06
508.905	410.06
509.007	419.06
509.109	537.06
509.211	503.06
509.313	446.06
509.415	355.06
509.517	385.06
509.619	422.06
509.721	440.06
509.823	376.06
509.925	607.06
510.027	395.06
510.129	457.06
510.231	467.06
510.333	397.06
510.435	385.06
510.537	490.06
510.639	522.06
510.741	392.06
510.843	438.06
510.945	479.06
511.047	476.06
511.148	458.06
511.25	423.06
511.352	435.06
511.454	349.06
511.556	496.06
511.658	426.06
511.76	470.06
511.861	536.06
511.963	410.06
512.065	346.06
512.167	373.06
512.268	630.06
512.37	447.06
512.472	369.06
512.574	529.06
512.676	500.06
512.777	374.06
512.879	398.06
512.981	394.06
513.082	471.06
513.184	409.06
513.286	904.06
513.387	555.06
513.489	593.06
513.591	521.06
513.692	498.06
513.794	515.06
513.896	434.06
513.997	398.06
514.099	380.06
514.2	432.06
514.302	478.06
514.404	435.06
514.505	350.06
514.607	530.06
514.708	398.06
514.81	514.06
514.911	531.06
515.013	568.06
515.114	511.06
515.216	508.06
515.317	460.06
515.419	426.06
515.52	503.06
515.622	489.06
515.723	486.06
515.825	612.06
515.926	577.06
516.027	492.06
516.129	424.06
516.23	582.06
516.332	536.06
516.433	520.06
516.534	676.06
516.636	519.06
516.737	483.06
516.838	1625.06
516.94	747.06
517.041	611.06
517.142	729.06
517.244	805.06
517.345	659.06
517.446	675.06
517.547	815.06
517.649	668.06
517.75	703.06
517.851	685.06
517.952	908.06
518.054	645.06
518.155	808.06
518.256	656.06
518.357	742.06
518.458	574.06
518.56	559.06
518.661	588.06
518.762	611.06
518.863	693.06
518.964	658.06
519.065	486.06
519.166	566.06
519.268	492.06
519.369	761.06
519.47	584.06
519.571	577.06
519.672	470.06
519.773	525.06
519.874	590.06
519.975	565.06
520.076	538.06
520.177	641.06
520.278	526.06
520.379	536.06
520.48	472.06
520.581	494.06
520.682	459.06
520.783	505.06
520.884	633.06
520.985	488.06
521.086	510.06
521.187	587.06
521.288	530.06
521.389	533.06
521.489	561.06
521.59	440.06
521.691	561.06
521.792	526.06
521.893	660.06
521.994	661.06
522.095	617.06
522.195	652.06
522.296	697.06
522.397	615.06
522.498	595.06
522.599	405.06
522.699	506.06
522.8	603.06
522.901	588.06
523.002	536.06
523.102	776.06
523.203	559.06
523.304	675.06
523.405	483.06
523.505	582.06
523.606	554.06
523.707	569.06
523.807	628.06
523.908	518.06
524.009	623.06
524.109	592.06
524.21	473.06
524.31	586.06
524.411	686.06
524.512	653.06
524.612	537.06
524.713	713.06
524.813	576.06
524.914	784.06
525.014	6528.06
525.115	1125.06
525.216	497.06
525.316	563.06
525.417	613.06
525.517	483.06
525.618	511.06
525.718	511.06
525.819	512.06
525.919	590.06
526.019	524.06
526.12	655.06
526.22	473.06
526.321	489.06
526.421	496.06
526.522	485.06
526.622	472.06
526.722	544.06
526.823	532.06
526.923	568.06
527.023	702.06
527.124	503.06
527.224	590.06
527.324	488.06
527.425	593.06
527.525	465.06
527.625	507.06
527.726	561.06
527.826	643.06
527.926	524.06
528.026	584.06
528.127	515.06
528.227	537.06
528.327	652.06
528.427	578.06
528.528	576.06
528.628	601.06
528.728	597.06
528.828	633.06
528.928	640.06
529.029	587.06
529.129	557.06
529.229	616.06
529.329	617.06
529.429	596.06
529.529	671.06
529.629	622.06
529.729	568.06
529.829	764.06
529.93	527.06
530.03	657.06
530.13	570.06
530.23	550.06
530.33	661.06
530.43	528.06
530.53	599.06
530.63	626.06
530.73	462.06
530.83	455.06
530.93	477.06
531.03	520.06
531.13	537.06
531.23	469.06
531.33	561.06
531.429	631.06
531.529	748.06
531.629	607.06
531.729	440.06
531.829	460.06
531.929	541.06
532.029	540.06
532.129	521.06
532.229	575.06
532.328	550.06
532.428	510.06
532.528	498.06
532.628	496.06
532.728	541.06
532.827	447.06
532.927	589.06
533.027	517.06
533.127	640.06
533.227	596.06
533.326	560.06
533.426	443.06
533.526	670.06
533.625	674.06
533.725	834.06
533.825	567.06
533.924	504.06
534.024	411.06
534.124	457.06
534.223	587.06
534.323	929.06
534.423	550.06
534.522	590.06
534.622	411.06
534.722	449.06
534.821	544.06
534.921	474.06
535.02	437.06
535.12	540.06
535.219	668.06
535.319	570.06
535.419	558.06
535.518	503.06
535.618	540.06
535.717	575.06
535.817	497.06
535.916	331.06
536.016	540.06
536.115	434.06
536.215	463.06
536.314	396.06
536.413	377.06
536.513	470.06
536.612	426.06
536.712	381.06
536.811	494.06
536.91	351.06
537.01	380.06
537.109	515.06
537.209	464.06
537.308	385.06
537.407	447.06
537.507	438.06
537.606	391.06
537.705	519.06
537.805	493.06
537.904	336.06
538.003	472.06
538.102	574.06
538.202	482.06
538.301	505.06
538.4	552.06
538.499	496.06
538.599	490.06
538.698	661.06
538.797	457.06
538.896	472.06
538.995	519.06
539.095	476.06
539.194	679.06
539.293	503.06
539.392	506.06
539.491	442.06
539.59	479.06
539.689	609.06
539.789	551.06
539.888	345.06
539.987	325.06
540.086	474.06
540.185	431.06
540.284	498.06
540.383	497.06
540.482	389.06
540.581	449.06
540.68	445.06
540.779	460.06
540.878	447.06
540.977	549.06
541.076	426.06
541.175	460.06
541.274	716.06
541.373	608.06
541.472	498.06
541.571	420.06
541.67	1840.06
541.769	627.06
541.868	486.06
541.966	572.06
542.065	452.06
542.164	479.06
542.263	459.06
542.362	492.06
542.461	516.06
542.56	527.06
542.658	543.06
542.757	439.06
542.856	393.06
542.955	408.06
543.054	384.06
543.152	580.06
543.251	517.06
543.35	589.06
543.449	495.06
543.547	499.06
543.646	440.06
543.745	492.06
543.843	525.06
543.942	561.06
544.041	446.06
544.14	502.06
544.238	487.06
544.337	630.06
544.436	512.06
544.534	674.06
544.633	531.06
544.731	464.06
544.83	528.06
544.929	525.06
545.027	428.06
545.126	442.06
545.224	594.06
545.323	432.06
545.421	445.06
545.52	575.06
545.619	517.06
545.717	479.06
