Data from 35g_HRC06701__11__438.txt Node

Date: Thu Apr 18 02:31:43 CDT 2024
User: Estudiantes 2
Spectrometer: HR+C0670
Trigger mode: 4
Integration Time (sec): 1.000000E0
Scans to average: 1
Electric dark correction enabled: true
Nonlinearity correction enabled: false
Boxcar width: 0
XAxis mode: Wavelengths
Number of Pixels in Spectrum: 2048
>>>>>Begin Spectral Data<<<<<
407.81	-103.75
407.921	-103.75
408.032	-103.75
408.143	-173.75
408.254	-151.75
408.365	68.25
408.476	280.25
408.587	-36.75
408.699	-27.75
408.81	-3.75
408.921	-60.75
409.032	-46.75
409.143	77.25
409.254	21.25
409.365	80.25
409.476	18.25
409.587	-25.75
409.698	85.25
409.809	133.25
409.92	-34.75
410.031	-35.75
410.142	58.25
410.253	9.25
410.364	25.25
410.475	-40.75
410.585	21.25
410.696	-13.75
410.807	-38.75
410.918	31.25
411.029	16.25
411.14	-2.75
411.251	8.25
411.362	65.25
411.472	14.25
411.583	45.25
411.694	71.25
411.805	-59.75
411.916	-3.75
412.026	80.25
412.137	-9.75
412.248	13.25
412.359	30.25
412.47	-55.75
412.58	-59.75
412.691	76.25
412.802	25.25
412.912	-31.75
413.023	-22.75
413.134	18.25
413.245	99.25
413.355	-6.75
413.466	10.25
413.577	41.25
413.687	106.25
413.798	-47.75
413.909	62.25
414.019	8.25
414.13	40.25
414.24	-49.75
414.351	8.25
414.462	164.25
414.572	62.25
414.683	69.25
414.793	-23.75
414.904	405.25
415.014	6.25
415.125	-30.75
415.235	68.25
415.346	111.25
415.456	123.25
415.567	70.25
415.677	64.25
415.788	44.25
415.898	15.25
416.009	36.25
416.119	37.25
416.23	11.25
416.34	22.25
416.45	38.25
416.561	796.25
416.671	204.25
416.782	-75.75
416.892	-70.75
417.002	47.25
417.113	68.25
417.223	20.25
417.333	7.25
417.444	38.25
417.554	37.25
417.664	43.25
417.775	5.25
417.885	-9.75
417.995	6.25
418.106	173.25
418.216	49.25
418.326	21.25
418.436	36.25
418.547	-7.75
418.657	-78.75
418.767	71.25
418.877	54.25
418.987	-28.75
419.098	-19.75
419.208	16.25
419.318	62.25
419.428	38.25
419.538	13.25
419.648	25.25
419.759	48.25
419.869	73.25
419.979	14.25
420.089	7.25
420.199	-2.75
420.309	68.25
420.419	47.25
420.529	36.25
420.639	556.25
420.749	104.25
420.859	62.25
420.969	56.25
421.079	252.25
421.189	112.25
421.299	82.25
421.409	8.25
421.519	68.25
421.629	90.25
421.739	15.25
421.849	-48.75
421.959	-53.75
422.069	105.25
422.179	-43.75
422.289	-31.75
422.399	21.25
422.509	89.25
422.619	3582.25
422.729	423.25
422.838	-2.75
422.948	60.25
423.058	-32.75
423.168	0.25
423.278	-19.75
423.388	12.25
423.498	84.25
423.607	12.25
423.717	301.25
423.827	326.25
423.937	13.25
424.046	102.25
424.156	113.25
424.266	24.25
424.376	220.25
424.485	172.25
424.595	44.25
424.705	-48.75
424.815	3.25
424.924	470.25
425.034	88.25
425.144	-64.75
425.253	73.25
425.363	17.25
425.473	53.25
425.582	-27.75
425.692	-4.75
425.801	-63.75
425.911	108.25
426.021	100.25
426.13	77.25
426.24	233.25
426.349	150.25
426.459	4.25
426.568	-35.75
426.678	155.25
426.787	-10.75
426.897	-31.75
427.006	33.25
427.116	95.25
427.225	-19.75
427.335	64.25
427.444	57.25
427.554	76.25
427.663	-8.75
427.773	1.25
427.882	77.25
427.992	-22.75
428.101	43.25
428.21	4.25
428.32	-4.75
428.429	-75.75
428.539	277.25
428.648	-20.75
428.757	85.25
428.867	55.25
428.976	129.25
429.085	20.25
429.195	4.25
429.304	-4.75
429.413	18.25
429.523	81.25
429.632	52.25
429.741	-6.75
429.85	7.25
429.96	70.25
430.069	-16.75
430.178	0.25
430.287	323.25
430.397	22.25
430.506	-3.75
430.615	18.25
430.724	31.25
430.833	42.25
430.943	35.25
431.052	6.25
431.161	-59.75
431.27	-11.75
431.379	-24.75
431.488	102.25
431.597	63.25
431.706	121.25
431.816	0.25
431.925	1.25
432.034	17.25
432.143	29.25
432.252	-42.75
432.361	123.25
432.47	29.25
432.579	16.25
432.688	5.25
432.797	89.25
432.906	-57.75
433.015	68.25
433.124	451.25
433.233	33.25
433.342	81.25
433.451	36.25
433.56	-8.75
433.669	-13.75
433.778	-25.75
433.886	49.25
433.995	1.25
434.104	136.25
434.213	44.25
434.322	-36.75
434.431	82.25
434.54	50.25
434.649	125.25
434.757	-10.75
434.866	28.25
434.975	81.25
435.084	61.25
435.193	93.25
435.301	314.25
435.41	416.25
435.519	480.25
435.628	85.25
435.737	-22.75
435.845	-39.75
435.954	15.25
436.063	19.25
436.171	31.25
436.28	46.25
436.389	121.25
436.498	27.25
436.606	58.25
436.715	230.25
436.823	5.25
436.932	-24.75
437.041	35.25
437.149	41.25
437.258	-9.75
437.367	29.25
437.475	-21.75
437.584	239.25
437.692	74.25
437.801	1599.25
437.91	198.25
438.018	-14.75
438.127	-1.75
438.235	60.25
438.344	5.25
438.452	82.25
438.561	-49.75
438.669	-0.75
438.778	14.25
438.886	-4.75
438.995	-24.75
439.103	32.25
439.212	-8.75
439.32	-37.75
439.428	2.25
439.537	47.25
439.645	58.25
439.754	24.25
439.862	17.25
439.97	16.25
440.079	2.25
440.187	-16.75
440.295	110.25
440.404	-9.75
440.512	36.25
440.62	40.25
440.729	47.25
440.837	95.25
440.945	717.25
441.054	71.25
441.162	-32.75
441.27	102.25
441.378	-50.75
441.487	-14.75
441.595	354.25
441.703	94.25
441.811	55.25
441.92	11.25
442.028	-53.75
442.136	23.25
442.244	59.25
442.352	36.25
442.461	-57.75
442.569	-69.75
442.677	33.25
442.785	28.25
442.893	-15.75
443.001	-25.75
443.109	-93.75
443.217	-53.75
443.325	-36.75
443.434	497.25
443.542	216.25
443.65	11.25
443.758	177.25
443.866	-41.75
443.974	241.25
444.082	56.25
444.19	-2.75
444.298	22.25
444.406	99.25
444.514	-29.75
444.622	35.25
444.73	73.25
444.838	9.25
444.946	21.25
445.054	12.25
445.161	14.25
445.269	-71.75
445.377	-9.75
445.485	90.25
445.593	30.25
445.701	220.25
445.809	142.25
445.917	37.25
446.025	-52.75
446.132	136.25
446.24	109.25
446.348	18.25
446.456	-42.75
446.564	-2.75
446.671	11.25
446.779	8.25
446.887	13.25
446.995	4.25
447.102	14.25
447.21	115.25
447.318	45.25
447.426	-46.75
447.533	270.25
447.641	1218.25
447.749	166.25
447.856	0.25
447.964	68.25
448.072	88.25
448.179	17.25
448.287	110.25
448.395	54.25
448.502	21.25
448.61	65.25
448.718	14.25
448.825	64.25
448.933	44.25
449.04	-28.75
449.148	53.25
449.256	7.25
449.363	47.25
449.471	27.25
449.578	69.25
449.686	-5.75
449.793	67.25
449.901	-6.75
450.008	79.25
450.116	35.25
450.223	-27.75
450.331	56.25
450.438	14.25
450.546	1.25
450.653	47.25
450.76	64.25
450.868	41.25
450.975	210.25
451.083	51.25
451.19	76.25
451.297	50.25
451.405	45.25
451.512	-31.75
451.619	158.25
451.727	162.25
451.834	22.25
451.941	10.25
452.049	5.25
452.156	48.25
452.263	52.25
452.371	-18.75
452.478	95.25
452.585	131.25
452.692	-8.75
452.8	108.25
452.907	183.25
453.014	90.25
453.121	-1.75
453.229	90.25
453.336	89.25
453.443	149.25
453.55	33.25
453.657	9.25
453.765	48.25
453.872	95.25
453.979	64.25
454.086	17.25
454.193	41.25
454.3	25.25
454.407	185.25
454.514	171.25
454.621	32.25
454.729	7.25
454.836	28.25
454.943	73.25
455.05	127.25
455.157	86.25
455.264	84.25
455.371	54.25
455.478	-1.75
455.585	297.25
455.692	119.25
455.799	157.25
455.906	50.25
456.013	53.25
456.12	-26.75
456.227	28.25
456.334	112.25
456.44	126.25
456.547	41.25
456.654	36.25
456.761	5.25
456.868	72.25
456.975	106.25
457.082	8.25
457.189	-23.75
457.296	47.25
457.402	27.25
457.509	-30.75
457.616	41.25
457.723	230.25
457.83	17.25
457.936	-20.75
458.043	348.25
458.15	10.25
458.257	101.25
458.363	57.25
458.47	-3.75
458.577	44.25
458.684	0.25
458.79	61.25
458.897	28.25
459.004	49.25
459.11	30.25
459.217	-7.75
459.324	53.25
459.43	159.25
459.537	292.25
459.644	62.25
459.75	-15.75
459.857	357.25
459.964	60.25
460.07	81.25
460.177	48.25
460.283	86.25
460.39	165.25
460.496	104.25
460.603	76.25
460.71	64.25
460.816	42.25
460.923	11.25
461.029	52.25
461.136	78.25
461.242	67.25
461.349	60.25
461.455	-2.75
461.562	393.25
461.668	165.25
461.774	66.25
461.881	158.25
461.987	25.25
462.094	51.25
462.2	125.25
462.307	106.25
462.413	21.25
462.519	3.25
462.626	128.25
462.732	31.25
462.838	31.25
462.945	155.25
463.051	87.25
463.157	24.25
463.264	64.25
463.37	91.25
463.476	69.25
463.583	89.25
463.689	4.25
463.795	6.25
463.901	104.25
464.008	173.25
464.114	-4.75
464.22	-10.75
464.326	73.25
464.433	-6.75
464.539	42.25
464.645	94.25
464.751	232.25
464.857	65.25
464.963	33.25
465.07	92.25
465.176	96.25
465.282	69.25
465.388	201.25
465.494	-18.75
465.6	7.25
465.706	36.25
465.812	-7.75
465.918	90.25
466.024	77.25
466.131	80.25
466.237	29.25
466.343	-10.75
466.449	-8.75
466.555	-22.75
466.661	1.25
466.767	23.25
466.873	57.25
466.979	214.25
467.085	93.25
467.191	65.25
467.296	-13.75
467.402	35.25
467.508	68.25
467.614	182.25
467.72	35.25
467.826	-2.75
467.932	13.25
468.038	34.25
468.144	85.25
468.25	20.25
468.355	-31.75
468.461	91.25
468.567	-8.75
468.673	11.25
468.779	101.25
468.885	9.25
468.99	-36.75
469.096	40.25
469.202	119.25
469.308	41.25
469.413	101.25
469.519	65.25
469.625	2.25
469.731	13.25
469.836	29.25
469.942	160.25
470.048	44.25
470.153	94.25
470.259	40.25
470.365	125.25
470.47	125.25
470.576	41.25
470.682	13.25
470.787	39.25
470.893	23.25
470.999	65.25
471.104	108.25
471.21	41.25
471.315	-53.75
471.421	-24.75
471.527	251.25
471.632	122.25
471.738	56.25
471.843	11.25
471.949	87.25
472.054	68.25
472.16	16.25
472.265	82.25
472.371	-15.75
472.476	93.25
472.582	177.25
472.687	43.25
472.793	-32.75
472.898	80.25
473.003	13.25
473.109	-27.75
473.214	-15.75
473.32	36.25
473.425	89.25
473.53	42.25
473.636	8.25
473.741	-24.75
473.847	9.25
473.952	88.25
474.057	57.25
474.163	102.25
474.268	48.25
474.373	91.25
474.478	-21.75
474.584	-2.75
474.689	79.25
474.794	33.25
474.9	251.25
475.005	60.25
475.11	155.25
475.215	-9.75
475.321	77.25
475.426	184.25
475.531	182.25
475.636	50.25
475.741	-9.75
475.846	117.25
475.952	238.25
476.057	137.25
476.162	120.25
476.267	158.25
476.372	373.25
476.477	50.25
476.582	136.25
476.687	78.25
476.793	11.25
476.898	26.25
477.003	87.25
477.108	-11.75
477.213	-51.75
477.318	20.25
477.423	84.25
477.528	130.25
477.633	95.25
477.738	103.25
477.843	-39.75
477.948	7.25
478.053	25.25
478.158	8.25
478.263	55.25
478.368	64.25
478.473	99.25
478.578	61.25
478.682	-17.75
478.787	77.25
478.892	35.25
478.997	96.25
479.102	56.25
479.207	1.25
479.312	180.25
479.417	106.25
479.521	12.25
479.626	116.25
479.731	106.25
479.836	18.25
479.941	148.25
480.045	129.25
480.15	105.25
480.255	55.25
480.36	32.25
480.465	83.25
480.569	192.25
480.674	24.25
480.779	5.25
480.883	-18.75
480.988	71.25
481.093	85.25
481.197	40.25
481.302	44.25
481.407	141.25
481.511	1320.25
481.616	165.25
481.721	78.25
481.825	279.25
481.93	39.25
482.035	46.25
482.139	140.25
482.244	57.25
482.348	45.25
482.453	97.25
482.557	119.25
482.662	56.25
482.767	0.25
482.871	32.25
482.976	9.25
483.08	56.25
483.185	231.25
483.289	-3.75
483.394	70.25
483.498	94.25
483.603	-1.75
483.707	58.25
483.811	151.25
483.916	140.25
484.02	19.25
484.125	153.25
484.229	72.25
484.333	106.25
484.438	25.25
484.542	23.25
484.647	3.25
484.751	37.25
484.855	68.25
484.96	20.25
485.064	36.25
485.168	68.25
485.273	24.25
485.377	-10.75
485.481	221.25
485.585	34.25
485.69	-21.75
485.794	25.25
485.898	92.25
486.002	-17.75
486.107	23.25
486.211	97.25
486.315	63.25
486.419	93.25
486.524	124.25
486.628	20.25
486.732	2.25
486.836	49.25
486.94	149.25
487.044	21.25
487.148	9.25
487.253	46.25
487.357	38.25
487.461	220.25
487.565	85.25
487.669	21.25
487.773	17.25
487.877	162.25
487.981	109.25
488.085	104.25
488.189	58.25
488.293	230.25
488.397	551.25
488.501	148.25
488.605	104.25
488.709	54.25
488.813	-15.75
488.917	25.25
489.021	55.25
489.125	304.25
489.229	82.25
489.333	155.25
489.437	134.25
489.541	96.25
489.645	34.25
489.749	80.25
489.853	109.25
489.956	67.25
490.06	99.25
490.164	76.25
490.268	86.25
490.372	86.25
490.476	44.25
490.579	65.25
490.683	626.25
490.787	153.25
490.891	86.25
490.995	101.25
491.098	64.25
491.202	80.25
491.306	153.25
491.41	88.25
491.513	61.25
491.617	106.25
491.721	192.25
491.824	307.25
491.928	138.25
492.032	341.25
492.136	85.25
492.239	41.25
492.343	127.25
492.446	429.25
492.55	164.25
492.654	42.25
492.757	12.25
492.861	151.25
492.965	104.25
493.068	93.25
493.172	72.25
493.275	55.25
493.379	33.25
493.482	138.25
493.586	178.25
493.689	336.25
493.793	69.25
493.896	150.25
494	185.25
494.103	139.25
494.207	362.25
494.31	501.25
494.414	151.25
494.517	60.25
494.621	40.25
494.724	78.25
494.828	45.25
494.931	79.25
495.034	70.25
495.138	209.25
495.241	45.25
495.345	919.25
495.448	220.25
495.551	69.25
495.655	80.25
495.758	36.25
495.861	26.25
495.965	57.25
496.068	100.25
496.171	121.25
496.274	77.25
496.378	102.25
496.481	99.25
496.584	66.25
496.687	102.25
496.791	100.25
496.894	105.25
496.997	116.25
497.1	82.25
497.204	90.25
497.307	21.25
497.41	237.25
497.513	291.25
497.616	100.25
497.719	62.25
497.823	41.25
497.926	9.25
498.029	79.25
498.132	71.25
498.235	38.25
498.338	147.25
498.441	183.25
498.544	31.25
498.647	92.25
498.75	198.25
498.853	237.25
498.956	90.25
499.059	282.25
499.163	52.25
499.266	67.25
499.369	121.25
499.471	55.25
499.574	170.25
499.677	130.25
499.78	124.25
499.883	39.25
499.986	110.25
500.089	62.25
500.192	59.25
500.295	56.25
500.398	86.25
500.501	99.25
500.604	26.25
500.707	108.25
500.809	76.25
500.912	204.25
501.015	219.25
501.118	110.25
501.221	145.25
501.324	123.25
501.426	133.25
501.529	60.25
501.632	127.25
501.735	78.25
501.837	32.25
501.94	54.25
502.043	113.25
502.146	89.25
502.248	100.25
502.351	45.25
502.454	57.25
502.557	36.25
502.659	90.25
502.762	55.25
502.865	17.25
502.967	31.25
503.07	105.25
503.173	118.25
503.275	47.25
503.378	75.25
503.48	39.25
503.583	156.25
503.686	142.25
503.788	339.25
503.891	106.25
503.993	269.25
504.096	70.25
504.198	61.25
504.301	15.25
504.403	105.25
504.506	47.25
504.608	16.25
504.711	74.25
504.813	120.25
504.916	102.25
505.018	88.25
505.121	39.25
505.223	79.25
505.326	80.25
505.428	186.25
505.531	125.25
505.633	117.25
505.735	86.25
505.838	32.25
505.94	79.25
506.042	46.25
506.145	6.25
506.247	107.25
506.35	53.25
506.452	170.25
506.554	140.25
506.656	130.25
506.759	75.25
506.861	66.25
506.963	68.25
507.066	151.25
507.168	149.25
507.27	31.25
507.372	73.25
507.475	37.25
507.577	70.25
507.679	81.25
507.781	42.25
507.883	81.25
507.986	25.25
508.088	136.25
508.19	116.25
508.292	105.25
508.394	84.25
508.496	6.25
508.598	11.25
508.701	81.25
508.803	48.25
508.905	6.25
509.007	94.25
509.109	156.25
509.211	98.25
509.313	31.25
509.415	38.25
509.517	46.25
509.619	14.25
509.721	168.25
509.823	25.25
509.925	192.25
510.027	111.25
510.129	93.25
510.231	92.25
510.333	77.25
510.435	25.25
510.537	95.25
510.639	136.25
510.741	98.25
510.843	144.25
510.945	118.25
511.047	196.25
511.148	72.25
511.25	5.25
511.352	109.25
511.454	-28.75
511.556	85.25
511.658	18.25
511.76	141.25
511.861	176.25
511.963	37.25
512.065	89.25
512.167	4.25
512.268	217.25
512.37	131.25
512.472	16.25
512.574	125.25
512.676	183.25
512.777	27.25
512.879	-3.75
512.981	20.25
513.082	107.25
513.184	59.25
513.286	505.25
513.387	172.25
513.489	170.25
513.591	131.25
513.692	167.25
513.794	52.25
513.896	-27.75
513.997	33.25
514.099	5.25
514.2	32.25
514.302	83.25
514.404	69.25
514.505	10.25
514.607	109.25
514.708	118.25
514.81	118.25
514.911	130.25
515.013	157.25
515.114	100.25
515.216	70.25
515.317	88.25
515.419	28.25
515.52	69.25
515.622	73.25
515.723	93.25
515.825	158.25
515.926	90.25
516.027	90.25
516.129	37.25
516.23	48.25
516.332	128.25
516.433	38.25
516.534	147.25
516.636	77.25
516.737	38.25
516.838	993.25
516.94	216.25
517.041	80.25
517.142	192.25
517.244	209.25
517.345	138.25
517.446	94.25
517.547	126.25
517.649	62.25
517.75	61.25
517.851	58.25
517.952	375.25
518.054	142.25
518.155	200.25
518.256	67.25
518.357	257.25
518.458	46.25
518.56	45.25
518.661	118.25
518.762	74.25
518.863	164.25
518.964	207.25
519.065	29.25
519.166	74.25
519.268	74.25
519.369	365.25
519.47	104.25
519.571	104.25
519.672	77.25
519.773	54.25
519.874	121.25
519.975	171.25
520.076	93.25
520.177	193.25
520.278	108.25
520.379	90.25
520.48	15.25
520.581	68.25
520.682	57.25
520.783	12.25
520.884	139.25
520.985	172.25
521.086	68.25
521.187	127.25
521.288	139.25
521.389	141.25
521.489	59.25
521.59	71.25
521.691	113.25
521.792	49.25
521.893	235.25
521.994	259.25
522.095	164.25
522.195	198.25
522.296	283.25
522.397	196.25
522.498	147.25
522.599	116.25
522.699	76.25
522.8	126.25
522.901	230.25
523.002	105.25
523.102	340.25
523.203	133.25
523.304	267.25
523.405	87.25
523.505	108.25
523.606	205.25
523.707	162.25
523.807	162.25
523.908	136.25
524.009	240.25
524.109	159.25
524.21	157.25
524.31	187.25
524.411	218.25
524.512	262.25
524.612	210.25
524.713	288.25
524.813	132.25
524.914	375.25
525.014	6049.25
525.115	665.25
525.216	152.25
525.316	139.25
525.417	157.25
525.517	123.25
525.618	100.25
525.718	47.25
525.819	81.25
525.919	133.25
526.019	69.25
526.12	204.25
526.22	76.25
526.321	92.25
526.421	46.25
526.522	120.25
526.622	17.25
526.722	37.25
526.823	144.25
526.923	131.25
527.023	176.25
527.124	119.25
527.224	193.25
527.324	20.25
527.425	96.25
527.525	87.25
527.625	59.25
527.726	86.25
527.826	235.25
527.926	111.25
528.026	116.25
528.127	105.25
528.227	126.25
528.327	187.25
528.427	151.25
528.528	141.25
528.628	187.25
528.728	126.25
528.828	253.25
528.928	210.25
529.029	103.25
529.129	204.25
529.229	159.25
529.329	152.25
529.429	239.25
529.529	250.25
529.629	163.25
529.729	113.25
529.829	300.25
529.93	85.25
530.03	202.25
530.13	205.25
530.23	116.25
530.33	248.25
530.43	155.25
530.53	149.25
530.63	133.25
530.73	81.25
530.83	41.25
530.93	59.25
531.03	64.25
531.13	168.25
531.23	97.25
531.33	153.25
531.429	238.25
531.529	281.25
531.629	111.25
531.729	79.25
531.829	29.25
531.929	58.25
532.029	160.25
532.129	80.25
532.229	120.25
532.328	125.25
532.428	112.25
532.528	62.25
532.628	38.25
532.728	178.25
532.827	76.25
532.927	163.25
533.027	125.25
533.127	211.25
533.227	152.25
533.326	170.25
533.426	74.25
533.526	215.25
533.625	309.25
533.725	415.25
533.825	221.25
533.924	68.25
534.024	58.25
534.124	48.25
534.223	161.25
534.323	573.25
534.423	171.25
534.522	112.25
534.622	113.25
534.722	58.25
534.821	154.25
534.921	48.25
535.02	84.25
535.12	172.25
535.219	220.25
535.319	249.25
535.419	168.25
535.518	104.25
535.618	195.25
535.717	201.25
535.817	46.25
535.916	11.25
536.016	149.25
536.115	97.25
536.215	84.25
536.314	92.25
536.413	2.25
536.513	76.25
536.612	117.25
536.712	0.25
536.811	79.25
536.91	74.25
537.01	12.25
537.109	130.25
537.209	110.25
537.308	75.25
537.407	73.25
537.507	87.25
537.606	124.25
537.705	108.25
537.805	107.25
537.904	83.25
538.003	109.25
538.102	172.25
538.202	199.25
538.301	185.25
538.4	173.25
538.499	154.25
538.599	159.25
538.698	327.25
538.797	117.25
538.896	231.25
538.995	168.25
539.095	93.25
539.194	332.25
539.293	110.25
539.392	108.25
539.491	119.25
539.59	111.25
539.689	233.25
539.789	234.25
539.888	66.25
539.987	21.25
540.086	116.25
540.185	150.25
540.284	173.25
540.383	137.25
540.482	94.25
540.581	137.25
540.68	122.25
540.779	195.25
540.878	151.25
540.977	176.25
541.076	119.25
541.175	176.25
541.274	380.25
541.373	228.25
541.472	273.25
541.571	81.25
541.67	1540.25
541.769	389.25
541.868	148.25
541.966	196.25
542.065	170.25
542.164	167.25
542.263	112.25
542.362	170.25
542.461	252.25
542.56	207.25
542.658	202.25
542.757	151.25
542.856	104.25
542.955	83.25
543.054	120.25
543.152	196.25
543.251	164.25
543.35	333.25
543.449	177.25
543.547	164.25
543.646	137.25
543.745	229.25
543.843	232.25
543.942	206.25
544.041	194.25
544.14	189.25
544.238	182.25
544.337	413.25
544.436	214.25
544.534	333.25
544.633	276.25
544.731	162.25
544.83	161.25
544.929	176.25
545.027	171.25
545.126	105.25
545.224	234.25
545.323	190.25
545.421	166.25
545.52	176.25
545.619	220.25
545.717	155.25
545.816	239.25
545.914	289.25
546.013	434.25
546.111	336.25
546.209	156.25
546.308	169.25
546.406	137.25
546.505	340.25
546.603	253.25
546.702	149.25
546.8	161.25
546.899	171.25
546.997	193.25
547.095	185.25
547.194	246.25
547.292	199.25
547.39	283.25
547.489	164.25
547.587	516.25
547.685	191.25
547.784	408.25
547.882	313.25
547.98	126.25
548.079	220.25
548.177	189.25
548.275	98.25
548.373	288.25
548.472	168.25
548.57	194.25
548.668	253.25
548.766	148.25
548.864	343.25
548.963	165.25
549.061	365.25
549.159	184.25
549.257	191.25
549.355	156.25
549.454	125.25
549.552	181.25
549.65	165.25
549.748	117.25
549.846	152.25
549.944	122.25
550.042	148.25
550.14	212.25
550.238	150.25
550.336	102.25
550.434	165.25
550.532	147.25
550.631	264.25
550.729	204.25
550.827	198.25
550.925	140.25
551.023	183.25
